%OpenBCI Raw EEG Data
%Number of channels = 16
%Sample Rate = 125 Hz
%Board = OpenBCI_GUI$BoardCytonSerialDaisy
Sample Index, EXG Channel 0, EXG Channel 1, EXG Channel 2, EXG Channel 3, EXG Channel 4, EXG Channel 5, EXG Channel 6, EXG Channel 7, EXG Channel 8, EXG Channel 9, EXG Channel 10, EXG Channel 11, EXG Channel 12, EXG Channel 13, EXG Channel 14, EXG Channel 15, Accel Channel 0, Accel Channel 1, Accel Channel 2, Other, Other, Other, Other, Other, Other, Other, Analog Channel 0, Analog Channel 1, Analog Channel 2, Timestamp, Timestamp (Formatted)
34.0, -12876.1015625, 6194.5400390625, -87390.1328125, -78521.5625, -28699.974609375, -46595.875, -34460.265625, -29576.900390625, 0.0, 0.0, 0.0, 0.0, 0.0, 0.0, 0.0, 0.0, -0.0950000062584877, 0.3630000054836273, 0.2900000214576721, 192.0, 125.0, 8.0, 11.0, 88.0, 9.0, 16.0, 0.0, 0.0, 0.0, 1.608297194944184E9, 2020-12-18 16:13:14.944
36.0, -12854.041015625, 6324.15771484375, -87286.0859375, -78376.28125, -28663.138671875, -46569.45703125, -34429.8671875, -29549.810546875, 0.0, 0.0, 0.0, 0.0, 0.0, 0.0, 0.0, 0.0, -0.0950000062584877, 0.3630000054836273, 0.2900000214576721, 192.0, 0.0, 0.0, 0.0, 0.0, 0.0, 0.0, 0.0, 0.0, 0.0, 1.6082971949441905E9, 2020-12-18 16:13:14.944
38.0, -12834.37109375, 6288.97607421875, -87191.6015625, -78222.4296875, -28589.623046875, -46479.69140625, -34396.29296875, -29493.7734375, 0.0, 0.0, 0.0, 0.0, 0.0, 0.0, 0.0, 0.0, -0.0950000062584877, 0.3630000054836273, 0.2900000214576721, 192.0, 0.0, 0.0, 0.0, 0.0, 0.0, 0.0, 0.0, 0.0, 0.0, 1.6082971949441965E9, 2020-12-18 16:13:14.944
40.0, -12962.2451171875, 6325.833984375, -87345.0703125, -78350.8828125, -28739.513671875, -46607.0078125, -34547.7265625, -29645.4296875, 0.0, 0.0, 0.0, 0.0, 0.0, 0.0, 0.0, 0.0, -0.0950000062584877, 0.3630000054836273, 0.2900000214576721, 192.0, 0.0, 0.0, 0.0, 0.0, 0.0, 0.0, 0.0, 0.0, 0.0, 1.6082971949442024E9, 2020-12-18 16:13:14.944
42.0, -12962.4912109375, 6191.00830078125, -87285.5703125, -78278.171875, -28696.0625, -46577.90625, -34505.03515625, -29598.8046875, 0.0, 0.0, 0.0, 0.0, 0.0, 0.0, 0.0, 0.0, -0.0950000062584877, 0.3630000054836273, 0.2900000214576721, 192.0, 0.0, 0.0, 0.0, 0.0, 0.0, 0.0, 0.0, 0.0, 0.0, 1.6082971949442084E9, 2020-12-18 16:13:14.944
44.0, -12930.349609375, 6267.40673828125, -87262.34375, -78223.5234375, -28682.181640625, -46559.375, -34504.609375, -29592.634765625, 0.0, 0.0, 0.0, 0.0, 0.0, 0.0, 0.0, 0.0, -0.16250000521540642, 0.5705000311136246, 0.388000026345253, 192.0, 124.0, 104.0, 12.0, 40.0, 7.5, 24.0, 0.0, 0.0, 0.0, 1.6082971949442143E9, 2020-12-18 16:13:14.944
46.0, -12991.615234375, 6275.654296875, -87352.0, -78304.328125, -28766.224609375, -46639.4609375, -34597.6171875, -29674.443359375, 0.0, 0.0, 0.0, 0.0, 0.0, 0.0, 0.0, 0.0, -0.16250000521540642, 0.5705000311136246, 0.388000026345253, 192.0, 0.0, 0.0, 0.0, 0.0, 0.0, 0.0, 0.0, 0.0, 0.0, 1.6082971949442203E9, 2020-12-18 16:13:14.944
48.0, -12940.6318359375, 6144.47216796875, -87270.1015625, -78240.3984375, -28675.69921875, -46554.0546875, -34501.14453125, -29575.828125, 0.0, 0.0, 0.0, 0.0, 0.0, 0.0, 0.0, 0.0, -0.16250000521540642, 0.5705000311136246, 0.388000026345253, 192.0, 0.0, 0.0, 0.0, 0.0, 0.0, 0.0, 0.0, 0.0, 0.0, 1.6082971949442265E9, 2020-12-18 16:13:14.944
50.0, -12959.9208984375, 6318.52490234375, -87370.375, -78330.3671875, -28769.197265625, -46625.73828125, -34603.875, -29682.51171875, 0.0, 0.0, 0.0, 0.0, 0.0, 0.0, 0.0, 0.0, -0.16250000521540642, 0.5705000311136246, 0.388000026345253, 192.0, 0.0, 0.0, 0.0, 0.0, 0.0, 0.0, 0.0, 0.0, 0.0, 1.6082971949442325E9, 2020-12-18 16:13:14.944
52.0, -13016.9404296875, 6158.82177734375, -87413.9609375, -78406.140625, -28777.53515625, -46645.1171875, -34571.77734375, -29658.259765625, 0.0, 0.0, 0.0, 0.0, 0.0, 0.0, 0.0, 0.0, -0.16250000521540642, 0.5705000311136246, 0.388000026345253, 192.0, 0.0, 0.0, 0.0, 0.0, 0.0, 0.0, 0.0, 0.0, 0.0, 1.6082971949442382E9, 2020-12-18 16:13:14.944
54.0, -13113.74609375, 6123.46142578125, -87551.6015625, -78564.6328125, -28901.02734375, -46772.1875, -34703.09375, -29785.486328125, 0.0, 0.0, 0.0, 0.0, 0.0, 0.0, 0.0, 0.0, -0.19425000809133053, 0.6682500317692757, 0.440000019967556, 192.0, 124.0, 120.0, 11.5, 120.0, 7.5, 48.0, 0.0, 0.0, 0.0, 1.6082971949442444E9, 2020-12-18 16:13:14.944
56.0, -13372.310546875, 5957.54443359375, -87811.84375, -78838.375, -29171.73046875, -47036.921875, -34963.2890625, -30050.041015625, 0.0, 0.0, 0.0, 0.0, 0.0, 0.0, 0.0, 0.0, -0.19425000809133053, 0.6682500317692757, 0.440000019967556, 192.0, 0.0, 0.0, 0.0, 0.0, 0.0, 0.0, 0.0, 0.0, 0.0, 1.6082971949442503E9, 2020-12-18 16:13:14.944
58.0, -13132.2080078125, 5979.56103515625, -87502.3125, -78566.515625, -28881.716796875, -46760.71875, -34681.5, -29768.54296875, 0.0, 0.0, 0.0, 0.0, 0.0, 0.0, 0.0, 0.0, -0.19425000809133053, 0.6682500317692757, 0.440000019967556, 192.0, 0.0, 0.0, 0.0, 0.0, 0.0, 0.0, 0.0, 0.0, 0.0, 1.6082971949442563E9, 2020-12-18 16:13:14.944
60.0, -13032.67578125, 6249.14501953125, -87443.84375, -78487.2734375, -28833.59375, -46692.34375, -34637.73828125, -29712.462890625, 0.0, 0.0, 0.0, 0.0, 0.0, 0.0, 0.0, 0.0, -0.19425000809133053, 0.6682500317692757, 0.440000019967556, 192.0, 0.0, 0.0, 0.0, 0.0, 0.0, 0.0, 0.0, 0.0, 0.0, 1.6082971949442627E9, 2020-12-18 16:13:14.944
62.0, -13017.7001953125, 6133.00537109375, -87399.8984375, -78439.9765625, -28777.580078125, -46657.1640625, -34577.1640625, -29662.015625, 0.0, 0.0, 0.0, 0.0, 0.0, 0.0, 0.0, 0.0, -0.19425000809133053, 0.6682500317692757, 0.440000019967556, 192.0, 0.0, 0.0, 0.0, 0.0, 0.0, 0.0, 0.0, 0.0, 0.0, 1.6082971949442687E9, 2020-12-18 16:13:14.944
64.0, -12976.3720703125, 6202.318359375, -87392.34375, -78421.5859375, -28756.5234375, -46634.41015625, -34564.6484375, -29644.6484375, 0.0, 0.0, 0.0, 0.0, 0.0, 0.0, 0.0, 0.0, -0.2191250128671527, 0.7281250394880772, 0.47700000926852226, 192.0, 124.0, 48.0, 12.0, 80.0, 8.0, 8.0, 0.0, 0.0, 0.0, 1.608297194944275E9, 2020-12-18 16:13:14.944
66.0, -13018.8173828125, 6257.236328125, -87453.40625, -78477.0859375, -28814.28125, -46687.94140625, -34602.15234375, -29692.66015625, 0.0, 0.0, 0.0, 0.0, 0.0, 0.0, 0.0, 0.0, -0.2191250128671527, 0.7281250394880772, 0.47700000926852226, 192.0, 0.0, 0.0, 0.0, 0.0, 0.0, 0.0, 0.0, 0.0, 0.0, 1.6082971949442809E9, 2020-12-18 16:13:14.944
68.0, -13003.3056640625, 6132.4912109375, -87406.2890625, -78444.359375, -28758.53515625, -46633.91796875, -34548.64453125, -29633.025390625, 0.0, 0.0, 0.0, 0.0, 0.0, 0.0, 0.0, 0.0, -0.2191250128671527, 0.7281250394880772, 0.47700000926852226, 192.0, 0.0, 0.0, 0.0, 0.0, 0.0, 0.0, 0.0, 0.0, 0.0, 1.6082971949442945E9, 2020-12-18 16:13:14.944
70.0, -13024.6962890625, 6266.78076171875, -87475.0703125, -78508.890625, -28824.205078125, -46698.55859375, -34613.59765625, -29713.291015625, 0.0, 0.0, 0.0, 0.0, 0.0, 0.0, 0.0, 0.0, -0.2191250128671527, 0.7281250394880772, 0.47700000926852226, 192.0, 0.0, 0.0, 0.0, 0.0, 0.0, 0.0, 0.0, 0.0, 0.0, 1.6082971949443016E9, 2020-12-18 16:13:14.944
72.0, -13055.765625, 6108.48583984375, -87494.359375, -78537.6796875, -28840.677734375, -46716.53125, -34637.51171875, -29724.109375, 0.0, 0.0, 0.0, 0.0, 0.0, 0.0, 0.0, 0.0, -0.2191250128671527, 0.7281250394880772, 0.47700000926852226, 192.0, 0.0, 0.0, 0.0, 0.0, 0.0, 0.0, 0.0, 0.0, 0.0, 1.6082971949443088E9, 2020-12-18 16:13:14.944
74.0, -13026.23828125, 6164.61083984375, -87477.796875, -78520.0859375, -28831.111328125, -46695.921875, -34611.69921875, -29698.740234375, 0.0, 0.0, 0.0, 0.0, 0.0, 0.0, 0.0, 0.0, -0.23556250846013427, 0.7610625345259905, 0.4965000208467245, 192.0, 124.0, 16.0, 12.0, 104.0, 8.0, 16.0, 0.0, 0.0, 0.0, 1.6082971949443161E9, 2020-12-18 16:13:14.944
76.0, -13115.6005859375, 6166.44384765625, -87581.6171875, -78615.9296875, -28935.94140625, -46801.421875, -34705.484375, -29803.724609375, 0.0, 0.0, 0.0, 0.0, 0.0, 0.0, 0.0, 0.0, -0.23556250846013427, 0.7610625345259905, 0.4965000208467245, 192.0, 0.0, 0.0, 0.0, 0.0, 0.0, 0.0, 0.0, 0.0, 0.0, 1.6082971949443233E9, 2020-12-18 16:13:14.944
78.0, -13124.67578125, 6008.26025390625, -87563.09375, -78602.3671875, -28923.3125, -46795.51953125, -34696.140625, -29799.099609375, 0.0, 0.0, 0.0, 0.0, 0.0, 0.0, 0.0, 0.0, -0.23556250846013427, 0.7610625345259905, 0.4965000208467245, 192.0, 0.0, 0.0, 0.0, 0.0, 0.0, 0.0, 0.0, 0.0, 0.0, 1.6082971949443307E9, 2020-12-18 16:13:14.944
80.0, -12947.7841796875, 6266.087890625, -87418.6953125, -78448.6953125, -28796.578125, -46663.0859375, -34580.5390625, -29677.751953125, 0.0, 0.0, 0.0, 0.0, 0.0, 0.0, 0.0, 0.0, -0.23556250846013427, 0.7610625345259905, 0.4965000208467245, 192.0, 0.0, 0.0, 0.0, 0.0, 0.0, 0.0, 0.0, 0.0, 0.0, 1.608297194944338E9, 2020-12-18 16:13:14.944
82.0, -12859.740234375, 6308.4892578125, -87230.4921875, -78153.3203125, -28655.8515625, -46544.265625, -34436.7265625, -29543.796875, 0.0, 0.0, 0.0, 0.0, 0.0, 0.0, 0.0, 0.0, -0.23556250846013427, 0.7610625345259905, 0.4965000208467245, 192.0, 0.0, 0.0, 0.0, 0.0, 0.0, 0.0, 0.0, 0.0, 0.0, 1.6082971949443452E9, 2020-12-18 16:13:14.944
84.0, -12930.4833984375, 6283.90234375, -87294.6640625, -78166.328125, -28726.3046875, -46595.09375, -34533.17578125, -29630.611328125, 0.0, 0.0, 0.0, 0.0, 0.0, 0.0, 0.0, 0.0, -0.25278125959448516, 0.7895312765613198, 0.4142500190064311, 192.0, 123.5, 72.0, 12.5, 72.0, 5.0, 48.0, 0.0, 0.0, 0.0, 1.6082971949443526E9, 2020-12-18 16:13:14.944
86.0, -12961.8427734375, 6314.009765625, -87352.8515625, -78228.8203125, -28778.09375, -46631.50390625, -34606.4453125, -29686.111328125, 0.0, 0.0, 0.0, 0.0, 0.0, 0.0, 0.0, 0.0, -0.25278125959448516, 0.7895312765613198, 0.4142500190064311, 192.0, 0.0, 0.0, 0.0, 0.0, 0.0, 0.0, 0.0, 0.0, 0.0, 1.6082971949443605E9, 2020-12-18 16:13:14.944
88.0, -13033.0107421875, 6135.84423828125, -87370.7734375, -78223.390625, -28805.83203125, -46665.30078125, -34619.98828125, -29699.8125, 0.0, 0.0, 0.0, 0.0, 0.0, 0.0, 0.0, 0.0, -0.25278125959448516, 0.7895312765613198, 0.4142500190064311, 192.0, 0.0, 0.0, 0.0, 0.0, 0.0, 0.0, 0.0, 0.0, 0.0, 1.608297194944368E9, 2020-12-18 16:13:14.944
90.0, -13028.7646484375, 6295.4130859375, -87394.2890625, -78220.109375, -28836.744140625, -46691.62890625, -34669.03125, -29740.26953125, 0.0, 0.0, 0.0, 0.0, 0.0, 0.0, 0.0, 0.0, -0.25278125959448516, 0.7895312765613198, 0.4142500190064311, 192.0, 0.0, 0.0, 0.0, 0.0, 0.0, 0.0, 0.0, 0.0, 0.0, 1.6082971949443753E9, 2020-12-18 16:13:14.944
92.0, -13050.333984375, 6166.64501953125, -87403.0703125, -78226.5859375, -28833.146484375, -46691.0703125, -34662.90625, -29743.353515625, 0.0, 0.0, 0.0, 0.0, 0.0, 0.0, 0.0, 0.0, -0.25278125959448516, 0.7895312765613198, 0.4142500190064311, 192.0, 0.0, 0.0, 0.0, 0.0, 0.0, 0.0, 0.0, 0.0, 0.0, 1.6082971949443822E9, 2020-12-18 16:13:14.944
94.0, -13033.1005859375, 6178.24560546875, -87406.625, -78244.359375, -28828.138671875, -46685.6171875, -34654.79296875, -29733.7421875, 0.0, 0.0, 0.0, 0.0, 0.0, 0.0, 0.0, 0.0, -0.2533906338503584, 0.809765659738332, 0.4421250238083303, 192.0, 124.0, 8.0, 12.5, 120.0, 7.0, 88.0, 0.0, 0.0, 0.0, 1.6082971949443896E9, 2020-12-18 16:13:14.944
96.0, -13056.9501953125, 6232.515625, -87463.984375, -78305.6015625, -28871.5234375, -46721.1796875, -34683.3359375, -29751.9375, 0.0, 0.0, 0.0, 0.0, 0.0, 0.0, 0.0, 0.0, -0.2533906338503584, 0.809765659738332, 0.4421250238083303, 192.0, 0.0, 0.0, 0.0, 0.0, 0.0, 0.0, 0.0, 0.0, 0.0, 1.6082971949443967E9, 2020-12-18 16:13:14.944
98.0, -13063.07421875, 6089.173828125, -87473.328125, -78343.7578125, -28862.337890625, -46717.109375, -34689.66015625, -29752.943359375, 0.0, 0.0, 0.0, 0.0, 0.0, 0.0, 0.0, 0.0, -0.2533906338503584, 0.809765659738332, 0.4421250238083303, 192.0, 0.0, 0.0, 0.0, 0.0, 0.0, 0.0, 0.0, 0.0, 0.0, 1.6082971949444048E9, 2020-12-18 16:13:14.944
100.0, -13027.333984375, 6242.79736328125, -87506.7890625, -78378.78125, -28870.8984375, -46726.7890625, -34672.0234375, -29753.703125, 0.0, 0.0, 0.0, 0.0, 0.0, 0.0, 0.0, 0.0, -0.2533906338503584, 0.809765659738332, 0.4421250238083303, 192.0, 0.0, 0.0, 0.0, 0.0, 0.0, 0.0, 0.0, 0.0, 0.0, 1.608297194944412E9, 2020-12-18 16:13:14.944
102.0, -13112.158203125, 6081.03759765625, -87569.9765625, -78463.4921875, -28912.181640625, -46784.32421875, -34710.828125, -29797.130859375, 0.0, 0.0, 0.0, 0.0, 0.0, 0.0, 0.0, 0.0, -0.2533906338503584, 0.809765659738332, 0.4421250238083303, 192.0, 0.0, 0.0, 0.0, 0.0, 0.0, 0.0, 0.0, 0.0, 0.0, 1.608297194944422E9, 2020-12-18 16:13:14.944
104.0, -13368.2421875, 5821.19873046875, -87824.625, -78731.78125, -29168.421875, -47074.71484375, -34960.33984375, -30060.5703125, 0.0, 0.0, 0.0, 0.0, 0.0, 0.0, 0.0, 0.0, -0.225695323839318, 0.8238828594330698, 0.455062524182722, 192.0, 124.5, 104.0, 13.0, 24.0, 7.0, 80.0, 0.0, 0.0, 0.0, 1.6082971949444292E9, 2020-12-18 16:13:14.944
106.0, -13430.0224609375, 5832.55322265625, -87881.9375, -78799.3046875, -29240.037109375, -47151.40625, -35025.8984375, -30133.123046875, 0.0, 0.0, 0.0, 0.0, 0.0, 0.0, 0.0, 0.0, -0.225695323839318, 0.8238828594330698, 0.455062524182722, 192.0, 0.0, 0.0, 0.0, 0.0, 0.0, 0.0, 0.0, 0.0, 0.0, 1.6082971949444363E9, 2020-12-18 16:13:14.944
108.0, -13258.25, 5841.8740234375, -87681.9375, -78592.7734375, -29037.41796875, -46930.68359375, -34826.18359375, -29916.869140625, 0.0, 0.0, 0.0, 0.0, 0.0, 0.0, 0.0, 0.0, -0.225695323839318, 0.8238828594330698, 0.455062524182722, 192.0, 0.0, 0.0, 0.0, 0.0, 0.0, 0.0, 0.0, 0.0, 0.0, 1.608297194944443E9, 2020-12-18 16:13:14.944
110.0, -13160.86328125, 6095.87939453125, -87651.5546875, -78548.875, -29000.76171875, -46879.80859375, -34802.22265625, -29889.646484375, 0.0, 0.0, 0.0, 0.0, 0.0, 0.0, 0.0, 0.0, -0.225695323839318, 0.8238828594330698, 0.455062524182722, 192.0, 0.0, 0.0, 0.0, 0.0, 0.0, 0.0, 0.0, 0.0, 0.0, 1.6082971949444504E9, 2020-12-18 16:13:14.944
112.0, -13128.1181640625, 6040.24560546875, -87602.515625, -78512.53125, -28941.060546875, -46828.1328125, -34736.59765625, -29825.607421875, 0.0, 0.0, 0.0, 0.0, 0.0, 0.0, 0.0, 0.0, -0.225695323839318, 0.8238828594330698, 0.455062524182722, 192.0, 0.0, 0.0, 0.0, 0.0, 0.0, 0.0, 0.0, 0.0, 0.0, 1.6082971949444573E9, 2020-12-18 16:13:14.944
114.0, -13033.5927734375, 6140.359375, -87517.6484375, -78431.125, -28858.693359375, -46732.01953125, -34656.109375, -29741.23046875, 0.0, 0.0, 0.0, 0.0, 0.0, 0.0, 0.0, 0.0, -0.21884766811854206, 0.8139414397301152, 0.47553127293940634, 192.0, 124.5, 48.0, 12.5, 16.0, 7.5, 64.0, 0.0, 0.0, 0.0, 1.608297194944464E9, 2020-12-18 16:13:14.944
116.0, -13035.447265625, 6246.77587890625, -87543.328125, -78464.2109375, -28879.01171875, -46746.390625, -34665.1171875, -29749.90234375, 0.0, 0.0, 0.0, 0.0, 0.0, 0.0, 0.0, 0.0, -0.21884766811854206, 0.8139414397301152, 0.47553127293940634, 192.0, 0.0, 0.0, 0.0, 0.0, 0.0, 0.0, 0.0, 0.0, 0.0, 1.608297194944471E9, 2020-12-18 16:13:14.944
118.0, -12990.0068359375, 6117.02392578125, -87465.7265625, -78421.046875, -28799.3046875, -46679.3125, -34588.1171875, -29671.58203125, 0.0, 0.0, 0.0, 0.0, 0.0, 0.0, 0.0, 0.0, -0.21884766811854206, 0.8139414397301152, 0.47553127293940634, 192.0, 0.0, 0.0, 0.0, 0.0, 0.0, 0.0, 0.0, 0.0, 0.0, 1.608297194944478E9, 2020-12-18 16:13:14.944
120.0, -12961.865234375, 6299.4140625, -87487.25, -78445.234375, -28830.5078125, -46690.46875, -34624.08203125, -29706.115234375, 0.0, 0.0, 0.0, 0.0, 0.0, 0.0, 0.0, 0.0, -0.21884766811854206, 0.8139414397301152, 0.47553127293940634, 192.0, 0.0, 0.0, 0.0, 0.0, 0.0, 0.0, 0.0, 0.0, 0.0, 1.6082971949444852E9, 2020-12-18 16:13:14.944
122.0, -12988.2626953125, 6183.296875, -87482.109375, -78462.265625, -28813.85546875, -46680.6328125, -34576.203125, -29661.568359375, 0.0, 0.0, 0.0, 0.0, 0.0, 0.0, 0.0, 0.0, -0.21884766811854206, 0.8139414397301152, 0.47553127293940634, 192.0, 0.0, 0.0, 0.0, 0.0, 0.0, 0.0, 0.0, 0.0, 0.0, 1.6082971949444928E9, 2020-12-18 16:13:14.944
124.0, -12929.142578125, 6229.453125, -87432.46875, -78417.765625, -28762.24609375, -46630.02734375, -34540.9765625, -29634.58984375, 0.0, 0.0, 0.0, 0.0, 0.0, 0.0, 0.0, 0.0, -0.216423842284712, 0.8019707305938937, 0.49076565745053813, 192.0, 124.5, 40.0, 12.0, 88.0, 7.5, 104.0, 0.0, 0.0, 0.0, 1.6082971949445E9, 2020-12-18 16:13:14.944
126.0, -12978.875, 6287.94775390625, -87498.0234375, -78470.4453125, -28841.6171875, -46700.48046875, -34626.1796875, -29712.060546875, 0.0, 0.0, 0.0, 0.0, 0.0, 0.0, 0.0, 0.0, -0.216423842284712, 0.8019707305938937, 0.49076565745053813, 192.0, 0.0, 0.0, 0.0, 0.0, 0.0, 0.0, 0.0, 0.0, 0.0, 1.6082971949445071E9, 2020-12-18 16:13:14.944
128.0, -12978.9423828125, 6135.9560546875, -87441.8984375, -78415.390625, -28783.255859375, -46659.578125, -34563.1484375, -29657.58984375, 0.0, 0.0, 0.0, 0.0, 0.0, 0.0, 0.0, 0.0, -0.216423842284712, 0.8019707305938937, 0.49076565745053813, 192.0, 0.0, 0.0, 0.0, 0.0, 0.0, 0.0, 0.0, 0.0, 0.0, 1.6082971949445145E9, 2020-12-18 16:13:14.944
130.0, -12880.125, 6370.15771484375, -87368.1171875, -78318.4765625, -28727.48828125, -46594.578125, -34507.5625, -29604.19140625, 0.0, 0.0, 0.0, 0.0, 0.0, 0.0, 0.0, 0.0, -0.216423842284712, 0.8019707305938937, 0.49076565745053813, 192.0, 0.0, 0.0, 0.0, 0.0, 0.0, 0.0, 0.0, 0.0, 0.0, 1.608297194944522E9, 2020-12-18 16:13:14.944
132.0, -12805.8505859375, 6304.73388671875, -87204.1171875, -78107.5234375, -28614.6796875, -46498.734375, -34380.66796875, -29473.880859375, 0.0, 0.0, 0.0, 0.0, 0.0, 0.0, 0.0, 0.0, -0.216423842284712, 0.8019707305938937, 0.49076565745053813, 192.0, 0.0, 0.0, 0.0, 0.0, 0.0, 0.0, 0.0, 0.0, 0.0, 1.6082971949445293E9, 2020-12-18 16:13:14.944
134.0, -12856.3876953125, 6374.6279296875, -87200.6796875, -78044.21875, -28652.275390625, -46519.6328125, -34427.67578125, -29527.748046875, 0.0, 0.0, 0.0, 0.0, 0.0, 0.0, 0.0, 0.0, -0.21921193002344808, 0.8089853874698747, 0.43838283242075704, 192.0, 124.5, 8.0, 12.5, 64.0, 6.0, 8.0, 0.0, 0.0, 0.0, 1.6082971949445364E9, 2020-12-18 16:13:14.944
136.0, -12951.8740234375, 6345.2578125, -87312.703125, -78154.34375, -28754.265625, -46605.93359375, -34554.6328125, -29634.857421875, 0.0, 0.0, 0.0, 0.0, 0.0, 0.0, 0.0, 0.0, -0.21921193002344808, 0.8089853874698747, 0.43838283242075704, 192.0, 0.0, 0.0, 0.0, 0.0, 0.0, 0.0, 0.0, 0.0, 0.0, 1.6082971949445462E9, 2020-12-18 16:13:14.944
138.0, -12997.2255859375, 6146.43896484375, -87307.5390625, -78143.4375, -28756.322265625, -46619.078125, -34542.69921875, -29626.85546875, 0.0, 0.0, 0.0, 0.0, 0.0, 0.0, 0.0, 0.0, -0.21921193002344808, 0.8089853874698747, 0.43838283242075704, 192.0, 0.0, 0.0, 0.0, 0.0, 0.0, 0.0, 0.0, 0.0, 0.0, 1.6082971949445539E9, 2020-12-18 16:13:14.944
140.0, -13021.052734375, 6298.52001953125, -87332.328125, -78149.5859375, -28796.869140625, -46660.09375, -34593.76953125, -29683.697265625, 0.0, 0.0, 0.0, 0.0, 0.0, 0.0, 0.0, 0.0, -0.21921193002344808, 0.8089853874698747, 0.43838283242075704, 192.0, 0.0, 0.0, 0.0, 0.0, 0.0, 0.0, 0.0, 0.0, 0.0, 1.608297194944561E9, 2020-12-18 16:13:14.944
142.0, -13082.20703125, 6140.60498046875, -87376.6953125, -78192.0078125, -28839.001953125, -46704.4609375, -34642.609375, -29716.017578125, 0.0, 0.0, 0.0, 0.0, 0.0, 0.0, 0.0, 0.0, -0.21921193002344808, 0.8089853874698747, 0.43838283242075704, 192.0, 0.0, 0.0, 0.0, 0.0, 0.0, 0.0, 0.0, 0.0, 0.0, 1.6082971949445689E9, 2020-12-18 16:13:14.944
144.0, -13025.27734375, 6154.03857421875, -87324.4375, -78146.65625, -28788.3984375, -46647.9765625, -34580.5625, -29658.953125, 0.0, 0.0, 0.0, 0.0, 0.0, 0.0, 0.0, 0.0, -0.22960596978009562, 0.8124927159078652, 0.4561914345686091, 192.0, 124.0, 64.0, 12.5, 64.0, 7.0, 104.0, 0.0, 0.0, 0.0, 1.608297194944576E9, 2020-12-18 16:13:14.944
146.0, -13055.720703125, 6257.37060546875, -87398.984375, -78217.78125, -28852.681640625, -46711.63671875, -34648.82421875, -29732.69140625, 0.0, 0.0, 0.0, 0.0, 0.0, 0.0, 0.0, 0.0, -0.22960596978009562, 0.8124927159078652, 0.4561914345686091, 192.0, 0.0, 0.0, 0.0, 0.0, 0.0, 0.0, 0.0, 0.0, 0.0, 1.6082971949445837E9, 2020-12-18 16:13:14.944
148.0, -13057.642578125, 6085.955078125, -87390.9140625, -78212.7265625, -28816.671875, -46685.015625, -34611.05078125, -29698.984375, 0.0, 0.0, 0.0, 0.0, 0.0, 0.0, 0.0, 0.0, -0.22960596978009562, 0.8124927159078652, 0.4561914345686091, 192.0, 0.0, 0.0, 0.0, 0.0, 0.0, 0.0, 0.0, 0.0, 0.0, 1.6082971949445908E9, 2020-12-18 16:13:14.944
150.0, -13011.888671875, 6287.8583984375, -87409.9375, -78224.6640625, -28823.490234375, -46669.7265625, -34619.9453125, -29698.896484375, 0.0, 0.0, 0.0, 0.0, 0.0, 0.0, 0.0, 0.0, -0.22960596978009562, 0.8124927159078652, 0.4561914345686091, 192.0, 0.0, 0.0, 0.0, 0.0, 0.0, 0.0, 0.0, 0.0, 0.0, 1.6082971949445982E9, 2020-12-18 16:13:14.944
152.0, -13080.7099609375, 6159.67138671875, -87469.34375, -78324.3515625, -28864.7734375, -46725.0234375, -34655.88671875, -29736.73828125, 0.0, 0.0, 0.0, 0.0, 0.0, 0.0, 0.0, 0.0, -0.22960596978009562, 0.8124927159078652, 0.4561914345686091, 192.0, 0.0, 0.0, 0.0, 0.0, 0.0, 0.0, 0.0, 0.0, 0.0, 1.6082971949446056E9, 2020-12-18 16:13:14.944
154.0, -13093.875, 6115.66064453125, -87490.6484375, -78379.6953125, -28866.517578125, -46731.4609375, -34623.54296875, -29730.3671875, 0.0, 0.0, 0.0, 0.0, 0.0, 0.0, 0.0, 0.0, -0.2528029963341396, 0.7922463653449086, 0.39109571978769964, 192.0, 123.5, 48.0, 12.0, 16.0, 5.0, 24.0, 0.0, 0.0, 0.0, 1.6082971949446127E9, 2020-12-18 16:13:14.944
156.0, -13225.6162109375, 6111.3017578125, -87662.484375, -78558.984375, -29038.423828125, -46890.11328125, -34798.265625, -29889.533203125, 0.0, 0.0, 0.0, 0.0, 0.0, 0.0, 0.0, 0.0, -0.2528029963341396, 0.7922463653449086, 0.39109571978769964, 192.0, 0.0, 0.0, 0.0, 0.0, 0.0, 0.0, 0.0, 0.0, 0.0, 1.60829719494462E9, 2020-12-18 16:13:14.944
0.0, -10014.318359375, 165.53701782226562, -47287.28125, -42560.0234375, -18091.748046875, -26955.0859375, -20958.201171875, -18491.3515625, 0.0, 0.0, 0.0, 0.0, 0.0, 0.0, 0.0, 0.0, -0.26940150484279, 0.7921232103290095, 0.42154787086110446, 192.0, 123.5, 8.0, 12.0, 96.0, 7.0, 16.0, 0.0, 0.0, 0.0, 1.6082971955370052E9, 2020-12-18 16:13:15.537
2.0, -20889.26953125, -472.9405517578125, -95447.625, -85979.515625, -37037.46484375, -54772.1640625, -42752.42578125, -37835.625, -158921.203125, 101074.3359375, 144478.40625, -187500.015625, -187500.015625, -187500.015625, -187500.015625, -187500.015625, -0.26940150484279, 0.7921232103290095, 0.42154787086110446, 192.0, 0.0, 0.0, 0.0, 0.0, 0.0, 0.0, 0.0, 0.0, 0.0, 1.6082971955370739E9, 2020-12-18 16:13:15.537
4.0, -19957.73828125, -116.40788269042969, -94372.9765625, -84959.2890625, -35935.0546875, -53712.76171875, -41641.41015625, -36731.0234375, -153875.21875, 24496.662109375, 102372.953125, -187500.015625, -187500.015625, -187500.015625, -187500.015625, -187500.015625, -0.26940150484279, 0.7921232103290095, 0.42154787086110446, 192.0, 0.0, 0.0, 0.0, 0.0, 0.0, 0.0, 0.0, 0.0, 0.0, 1.6082971955370803E9, 2020-12-18 16:13:15.537
6.0, -18191.2578125, 1469.0460205078125, -92568.15625, -83191.7578125, -34126.95703125, -51913.9375, -39836.1953125, -34922.0078125, -150992.125, -32023.275390625, 45627.28515625, -187500.015625, -187500.015625, -187500.015625, -187500.015625, -187500.015625, -0.26940150484279, 0.7921232103290095, 0.42154787086110446, 192.0, 0.0, 0.0, 0.0, 0.0, 0.0, 0.0, 0.0, 0.0, 0.0, 1.6082971955370865E9, 2020-12-18 16:13:15.537
8.0, -17050.8046875, 2416.648193359375, -91381.1484375, -82035.5234375, -32954.16015625, -50755.578125, -38650.9921875, -33748.49609375, -150031.40625, -57270.30859375, 19355.0234375, -187500.015625, -187500.015625, -187500.015625, -187500.015625, -187500.015625, -0.22600001096725464, 0.7720000147819519, 0.40400001406669617, 192.0, 124.0, 120.0, 12.0, 16.0, 6.0, 80.0, 0.0, 0.0, 0.0, 1.6082971955370924E9, 2020-12-18 16:13:15.537
10.0, -15334.5029296875, 3750.7119140625, -89546.6953125, -80266.2734375, -31105.15625, -48951.75, -36774.5625, -31897.279296875, -149354.53125, -77704.296875, -1366.764404296875, -187500.015625, -187500.015625, -187500.015625, -187500.015625, -187500.015625, -0.22600001096725464, 0.7720000147819519, 0.40400001406669617, 192.0, 0.0, 0.0, 0.0, 0.0, 0.0, 0.0, 0.0, 0.0, 0.0, 1.608297195537099E9, 2020-12-18 16:13:15.537
12.0, -12860.9921875, 6004.72900390625, -87018.9140625, -77791.8671875, -28574.87109375, -46446.921875, -34246.8515625, -29366.927734375, -151755.515625, -68858.7734375, 7437.60986328125, -187500.015625, -187500.015625, -187500.015625, -187500.015625, -187500.015625, -0.22600001096725464, 0.7720000147819519, 0.40400001406669617, 192.0, 0.0, 0.0, 0.0, 0.0, 0.0, 0.0, 0.0, 0.0, 0.0, 1.608297195537105E9, 2020-12-18 16:13:15.537
14.0, -10290.9443359375, 7952.52685546875, -84334.5390625, -75206.6015625, -25867.248046875, -43801.75, -31521.390625, -26652.7109375, -156006.515625, -28559.224609375, 47872.16015625, -187500.015625, -187500.015625, -187500.015625, -187500.015625, -187500.015625, -0.22600001096725464, 0.7720000147819519, 0.40400001406669617, 192.0, 0.0, 0.0, 0.0, 0.0, 0.0, 0.0, 0.0, 0.0, 0.0, 1.608297195537115E9, 2020-12-18 16:13:15.537
16.0, -6262.55615234375, 11523.0390625, -80200.265625, -71200.984375, -21709.35546875, -39703.828125, -27352.990234375, -22493.85546875, -163069.21875, 41968.66015625, 114206.4609375, -187500.015625, -187500.015625, -187500.015625, -187500.015625, -187500.015625, -0.22600001096725464, 0.7720000147819519, 0.40400001406669617, 192.0, 0.0, 0.0, 0.0, 0.0, 0.0, 0.0, 0.0, 0.0, 0.0, 1.6082971955371213E9, 2020-12-18 16:13:15.537
18.0, -3717.5419921875, 13958.5517578125, -77689.453125, -68738.6953125, -19199.208984375, -37191.73828125, -24835.267578125, -19969.919921875, -172059.65625, 135780.296875, 149950.265625, -187500.015625, -187500.015625, -187500.015625, -187500.015625, -187500.015625, -0.22800001502037048, 0.7620000243186951, 0.47600001096725464, 192.0, 124.0, 112.0, 11.5, 104.0, 7.0, 112.0, 0.0, 0.0, 0.0, 1.6082971955371273E9, 2020-12-18 16:13:15.537
20.0, -3400.39306640625, 14389.6728515625, -77417.8359375, -68493.4765625, -18932.53125, -36922.64453125, -24569.86328125, -19699.642578125, -177129.203125, 157457.125, 157641.015625, -187500.015625, -187500.015625, -187500.015625, -187500.015625, -187500.015625, -0.22800001502037048, 0.7620000243186951, 0.47600001096725464, 192.0, 0.0, 0.0, 0.0, 0.0, 0.0, 0.0, 0.0, 0.0, 0.0, 1.6082971955371332E9, 2020-12-18 16:13:15.537
22.0, -3409.959716796875, 14718.154296875, -77514.234375, -68566.2109375, -19045.49609375, -37005.5703125, -24693.24609375, -19804.896484375, -181942.03125, 163872.59375, 164061.21875, -187500.015625, -187500.015625, -187500.015625, -187500.015625, -187500.015625, -0.22800001502037048, 0.7620000243186951, 0.47600001096725464, 192.0, 0.0, 0.0, 0.0, 0.0, 0.0, 0.0, 0.0, 0.0, 0.0, 1.6082971955371392E9, 2020-12-18 16:13:15.537
24.0, -4879.83251953125, 13375.57421875, -79041.9375, -70071.7578125, -20575.427734375, -38526.2265625, -26223.78125, -21331.765625, -185174.140625, 169101.140625, 169294.34375, -187500.015625, -187500.015625, -187500.015625, -187500.015625, -187500.015625, -0.22800001502037048, 0.7620000243186951, 0.47600001096725464, 192.0, 0.0, 0.0, 0.0, 0.0, 0.0, 0.0, 0.0, 0.0, 0.0, 1.6082971955371459E9, 2020-12-18 16:13:15.537
26.0, -4914.7236328125, 13416.4775390625, -79062.71875, -70105.7109375, -20601.669921875, -38556.98046875, -26236.611328125, -21350.943359375, -187184.71875, 172791.96875, 172988.859375, -187500.015625, -187500.015625, -187500.015625, -187500.015625, -187500.015625, -0.22800001502037048, 0.7620000243186951, 0.47600001096725464, 192.0, 0.0, 0.0, 0.0, 0.0, 0.0, 0.0, 0.0, 0.0, 0.0, 1.6082971955371516E9, 2020-12-18 16:13:15.537
28.0, -5678.974609375, 12847.603515625, -79872.59375, -70888.6875, -21431.298828125, -39366.33984375, -27078.01953125, -22192.0625, -178126.09375, 176744.171875, 176950.078125, -187500.015625, -173609.875, -187500.015625, -187500.015625, -187500.015625, -0.24000000953674316, 0.7680000066757202, 0.4660000205039978, 192.0, 124.0, 64.0, 12.0, 0.0, 7.0, 72.0, 0.0, 0.0, 0.0, 1.6082971955371575E9, 2020-12-18 16:13:15.537
30.0, -6525.81494140625, 11960.91015625, -80693.703125, -71719.4609375, -22258.380859375, -40201.66796875, -27905.525390625, -23012.05859375, -145389.15625, 179267.15625, 179466.515625, -187500.015625, -145236.53125, -187500.015625, -187500.015625, -187500.015625, -0.24000000953674316, 0.7680000066757202, 0.4660000205039978, 192.0, 0.0, 0.0, 0.0, 0.0, 0.0, 0.0, 0.0, 0.0, 0.0, 1.6082971955371635E9, 2020-12-18 16:13:15.537
32.0, -6416.89501953125, 12231.34375, -80602.8671875, -71612.234375, -22176.05859375, -40103.0078125, -27802.060546875, -22915.96875, -136595.421875, 181866.125, 182063.609375, -187500.015625, -113851.15625, -187500.015625, -187500.015625, -187500.015625, -0.24000000953674316, 0.7680000066757202, 0.4660000205039978, 192.0, 0.0, 0.0, 0.0, 0.0, 0.0, 0.0, 0.0, 0.0, 0.0, 1.6082971955371697E9, 2020-12-18 16:13:15.537
34.0, -8029.50634765625, 10774.568359375, -82249.296875, -73182.421875, -23833.642578125, -41723.39453125, -29474.26171875, -24578.3125, -110214.234375, 184307.21875, 184497.21875, -187500.015625, -83761.484375, -187500.015625, -187500.015625, -187500.015625, -0.24000000953674316, 0.7680000066757202, 0.4660000205039978, 192.0, 0.0, 0.0, 0.0, 0.0, 0.0, 0.0, 0.0, 0.0, 0.0, 1.6082971955371754E9, 2020-12-18 16:13:15.537
36.0, -7970.453125, 10836.7060546875, -82160.0234375, -73092.640625, -23740.390625, -41644.7421875, -29368.73828125, -24491.744140625, -91429.609375, 185791.984375, 185976.921875, -187500.015625, -66915.46875, -187500.015625, -187500.015625, -187500.015625, -0.24000000953674316, 0.7680000066757202, 0.4660000205039978, 192.0, 0.0, 0.0, 0.0, 0.0, 0.0, 0.0, 0.0, 0.0, 0.0, 1.6082971955371811E9, 2020-12-18 16:13:15.537
38.0, -8567.1103515625, 10336.5634765625, -82789.3828125, -73711.625, -24379.78515625, -42276.89453125, -30019.666015625, -25130.69140625, -86416.9609375, 187500.0, 187500.0, -187500.015625, -38811.6796875, -187500.015625, -187500.015625, -187500.015625, -0.2600000202655792, 0.7700000405311584, 0.5260000228881836, 192.0, 123.5, 112.0, 12.0, 8.0, 8.0, 56.0, 0.0, 0.0, 0.0, 1.6082971955371876E9, 2020-12-18 16:13:15.537
40.0, -8988.9775390625, 9756.513671875, -83162.390625, -74110.6015625, -24749.951171875, -42668.875, -30386.658203125, -25500.58984375, -61642.66796875, 187500.0, 187500.0, -187500.015625, -25397.59375, -187500.015625, -187500.015625, -187500.015625, -0.2600000202655792, 0.7700000405311584, 0.5260000228881836, 192.0, 0.0, 0.0, 0.0, 0.0, 0.0, 0.0, 0.0, 0.0, 0.0, 1.6082971955371935E9, 2020-12-18 16:13:15.537
42.0, -7709.45166015625, 10965.9443359375, -81857.78125, -72827.7890625, -23444.23046875, -41371.109375, -29081.98828125, -24190.689453125, -60502.97265625, 187500.0, 187500.0, -187500.015625, -8065.62646484375, -187500.015625, -187500.015625, -182334.265625, -0.2600000202655792, 0.7700000405311584, 0.5260000228881836, 192.0, 0.0, 0.0, 0.0, 0.0, 0.0, 0.0, 0.0, 0.0, 0.0, 1.6082971955371995E9, 2020-12-18 16:13:15.537
44.0, -9219.9150390625, 9697.7958984375, -83464.765625, -74372.03125, -25054.203125, -42948.2734375, -30709.283203125, -25807.12109375, -40196.6171875, 187500.0, 187500.0, -187500.015625, 10467.4111328125, -176812.28125, -187500.015625, -165776.671875, -0.2600000202655792, 0.7700000405311584, 0.5260000228881836, 192.0, 0.0, 0.0, 0.0, 0.0, 0.0, 0.0, 0.0, 0.0, 0.0, 1.6082971955372055E9, 2020-12-18 16:13:15.537
46.0, -9865.478515625, 9177.3349609375, -84134.015625, -75026.9609375, -25725.0234375, -43610.2421875, -31365.173828125, -26468.935546875, -56849.76171875, 187500.0, 187500.0, -187500.015625, 10907.091796875, -176407.671875, -187500.015625, -164791.84375, -0.2600000202655792, 0.7700000405311584, 0.5260000228881836, 192.0, 0.0, 0.0, 0.0, 0.0, 0.0, 0.0, 0.0, 0.0, 0.0, 1.6082971955372112E9, 2020-12-18 16:13:15.537
48.0, -10719.0693359375, 8420.1923828125, -84983.25, -75849.3203125, -26575.865234375, -44454.84765625, -32219.166015625, -27312.82421875, -100114.9765625, 187500.0, 187500.0, -187500.015625, 11476.9052734375, -175025.171875, -187500.015625, -164854.921875, -0.23800000548362732, 0.7740000486373901, 0.5020000338554382, 192.0, 124.0, 72.0, 12.0, 24.0, 7.5, 88.0, 0.0, 0.0, 0.0, 1.6082971955372188E9, 2020-12-18 16:13:15.537
50.0, -11339.978515625, 7756.904296875, -85580.2890625, -76440.3515625, -27189.2421875, -45064.6484375, -32826.26171875, -27925.91015625, -115503.953125, 187500.0, 187500.0, -187500.015625, 10461.30859375, -176070.703125, -187500.015625, -165667.71875, -0.23800000548362732, 0.7740000486373901, 0.5020000338554382, 192.0, 0.0, 0.0, 0.0, 0.0, 0.0, 0.0, 0.0, 0.0, 0.0, 1.6082971955372248E9, 2020-12-18 16:13:15.537
52.0, -11720.9638671875, 7545.2783203125, -85994.9375, -76831.1484375, -27615.400390625, -45476.0078125, -33260.33203125, -28352.158203125, -120432.265625, 187500.0, 187500.0, -187500.015625, 9651.2373046875, -176975.078125, -187500.015625, -166568.09375, -0.23800000548362732, 0.7740000486373901, 0.5020000338554382, 192.0, 0.0, 0.0, 0.0, 0.0, 0.0, 0.0, 0.0, 0.0, 0.0, 1.6082971955372307E9, 2020-12-18 16:13:15.537
54.0, -12011.916015625, 7110.31298828125, -86237.03125, -77070.4921875, -27853.06640625, -45725.2734375, -33498.625, -28592.796875, -123536.2734375, 187500.0, 187500.0, -187500.015625, 9442.7626953125, -176746.5625, -187500.015625, -167292.984375, -0.23800000548362732, 0.7740000486373901, 0.5020000338554382, 192.0, 0.0, 0.0, 0.0, 0.0, 0.0, 0.0, 0.0, 0.0, 0.0, 1.6082971955372367E9, 2020-12-18 16:13:15.537
56.0, -12186.505859375, 7073.0751953125, -86442.9765625, -77255.46875, -28057.5859375, -45926.6640625, -33703.8359375, -28812.89453125, -126862.953125, 187500.0, 187500.0, -187500.015625, 8170.85888671875, -178434.9375, -187500.015625, -168011.671875, -0.23800000548362732, 0.7740000486373901, 0.5020000338554382, 192.0, 0.0, 0.0, 0.0, 0.0, 0.0, 0.0, 0.0, 0.0, 0.0, 1.608297195537243E9, 2020-12-18 16:13:15.537
58.0, -12336.7763671875, 6882.07958984375, -86590.1171875, -77398.4765625, -28199.853515625, -46067.94921875, -33845.74609375, -28942.87109375, -127734.0703125, 187500.0, 187500.0, -187500.015625, 8054.0263671875, -178006.828125, -187500.015625, -168815.09375, -0.24000000953674316, 0.7700000405311584, 0.5220000147819519, 192.0, 124.0, 64.0, 12.0, 8.0, 8.0, 40.0, 0.0, 0.0, 0.0, 1.6082971955372488E9, 2020-12-18 16:13:15.537
60.0, -12436.30859375, 6712.74267578125, -86675.234375, -77482.4765625, -28287.517578125, -46150.875, -33922.99609375, -29017.97265625, -130664.0234375, 187500.0, 187500.0, -187500.015625, 7198.46826171875, -178972.265625, -187500.015625, -169481.015625, -0.24000000953674316, 0.7700000405311584, 0.5220000147819519, 192.0, 0.0, 0.0, 0.0, 0.0, 0.0, 0.0, 0.0, 0.0, 0.0, 1.6082971955372548E9, 2020-12-18 16:13:15.537
62.0, -12527.7275390625, 6778.8369140625, -86784.1328125, -77578.859375, -28401.154296875, -46255.390625, -34045.796875, -29137.599609375, -131655.234375, 187500.0, 187500.0, -187500.015625, 6436.25146484375, -179749.796875, -187500.015625, -170298.734375, -0.24000000953674316, 0.7700000405311584, 0.5220000147819519, 192.0, 0.0, 0.0, 0.0, 0.0, 0.0, 0.0, 0.0, 0.0, 0.0, 1.6082971955372605E9, 2020-12-18 16:13:15.537
64.0, -12611.14453125, 6527.5361328125, -86842.734375, -77642.0234375, -28456.228515625, -46318.82421875, -34104.73828125, -29197.076171875, -132956.828125, 187500.0, 187500.0, -187500.015625, 6277.55419921875, -179411.921875, -187500.015625, -170981.34375, -0.24000000953674316, 0.7700000405311584, 0.5220000147819519, 192.0, 0.0, 0.0, 0.0, 0.0, 0.0, 0.0, 0.0, 0.0, 0.0, 1.608297195537268E9, 2020-12-18 16:13:15.537
66.0, -12646.7734375, 6619.75927734375, -86906.328125, -77694.2578125, -28525.83203125, -46374.078125, -34175.97265625, -29266.61328125, -135152.390625, 187500.0, 187500.0, -187500.015625, 5094.14111328125, -181027.734375, -187500.015625, -171647.6875, -0.24000000953674316, 0.7700000405311584, 0.5220000147819519, 192.0, 0.0, 0.0, 0.0, 0.0, 0.0, 0.0, 0.0, 0.0, 0.0, 1.608297195537274E9, 2020-12-18 16:13:15.537
68.0, -12730.078125, 6516.06982421875, -86972.9140625, -77766.1875, -28588.349609375, -46447.34765625, -34246.55859375, -29338.8984375, -135150.84375, 187500.0, 187500.0, -187500.015625, 4953.01220703125, -180634.40625, -187500.015625, -172415.15625, -0.23600001633167267, 0.7680000066757202, 0.5380000472068787, 192.0, 124.0, 80.0, 12.0, 0.0, 8.0, 104.0, 0.0, 0.0, 0.0, 1.6082971955372798E9, 2020-12-18 16:13:15.537
70.0, -12761.951171875, 6394.2529296875, -87006.0859375, -77802.4609375, -28623.3515625, -46479.78125, -34266.51953125, -29357.25, -137492.859375, 187500.0, 187500.0, -187500.015625, 4091.77734375, -181616.03125, -187500.015625, -173026.90625, -0.23600001633167267, 0.7680000066757202, 0.5380000472068787, 192.0, 0.0, 0.0, 0.0, 0.0, 0.0, 0.0, 0.0, 0.0, 0.0, 1.6082971955372858E9, 2020-12-18 16:13:15.537
72.0, -12798.6083984375, 6511.42041015625, -87057.40625, -77841.6875, -28676.236328125, -46520.05859375, -34326.8671875, -29413.396484375, -138030.15625, 187500.0, 187500.0, -187500.015625, 3279.514892578125, -182468.125, -187500.015625, -173783.53125, -0.23600001633167267, 0.7680000066757202, 0.5380000472068787, 192.0, 0.0, 0.0, 0.0, 0.0, 0.0, 0.0, 0.0, 0.0, 0.0, 1.6082971955372918E9, 2020-12-18 16:13:15.537
74.0, -12850.9560546875, 6310.2099609375, -87061.1796875, -77853.9140625, -28674.380859375, -46531.63671875, -34319.15625, -29410.736328125, -138815.6875, 187500.0, 187500.0, -187500.015625, 3079.690185546875, -182156.71875, -187500.015625, -174409.8125, -0.23600001633167267, 0.7680000066757202, 0.5380000472068787, 192.0, 0.0, 0.0, 0.0, 0.0, 0.0, 0.0, 0.0, 0.0, 0.0, 1.6082971955372977E9, 2020-12-18 16:13:15.537
76.0, -12852.9453125, 6416.42578125, -87102.109375, -77887.1328125, -28730.037109375, -46571.71484375, -34378.859375, -29464.470703125, -140672.0625, 187500.0, 187500.0, -187500.015625, 1858.8828125, -183776.390625, -187500.015625, -175023.421875, -0.23600001633167267, 0.7680000066757202, 0.5380000472068787, 192.0, 0.0, 0.0, 0.0, 0.0, 0.0, 0.0, 0.0, 0.0, 0.0, 1.6082971955373037E9, 2020-12-18 16:13:15.537
78.0, -12901.470703125, 6350.33154296875, -87131.390625, -77920.390625, -28757.44140625, -46603.67578125, -34394.50390625, -29487.962890625, -140355.09375, 187500.0, 187500.0, -187500.015625, 1695.7374267578125, -183360.421875, -187500.015625, -175710.640625, -0.23800000548362732, 0.7640000581741333, 0.5300000309944153, 192.0, 124.0, 72.0, 11.5, 112.0, 8.0, 72.0, 0.0, 0.0, 0.0, 1.60829719553731E9, 2020-12-18 16:13:15.537
80.0, -12891.94921875, 6287.8359375, -87121.7734375, -77912.0546875, -28746.48828125, -46596.25390625, -34391.265625, -29482.017578125, -142389.703125, 187500.0, 187500.0, -187500.015625, 882.0668334960938, -184223.3125, -187500.015625, -176184.765625, -0.23800000548362732, 0.7640000581741333, 0.5300000309944153, 192.0, 0.0, 0.0, 0.0, 0.0, 0.0, 0.0, 0.0, 0.0, 0.0, 1.6082971955373158E9, 2020-12-18 16:13:15.537
82.0, -12907.5732421875, 6412.40234375, -87167.53125, -77946.8359375, -28797.8515625, -46644.08984375, -34446.8515625, -29539.1484375, -142653.078125, 187500.0, 187500.0, -187500.015625, 84.10961151123047, -185010.125, -187500.015625, -176814.859375, -0.23800000548362732, 0.7640000581741333, 0.5300000309944153, 192.0, 0.0, 0.0, 0.0, 0.0, 0.0, 0.0, 0.0, 0.0, 0.0, 1.6082971955373237E9, 2020-12-18 16:13:15.537
84.0, -12959.8310546875, 6215.259765625, -87156.5546875, -77945.40625, -28782.765625, -46638.1640625, -34424.2109375, -29521.109375, -143203.390625, 187500.0, 187500.0, -187500.015625, -91.19511413574219, -184608.484375, -187500.015625, -177348.015625, -0.23800000548362732, 0.7640000581741333, 0.5300000309944153, 192.0, 0.0, 0.0, 0.0, 0.0, 0.0, 0.0, 0.0, 0.0, 0.0, 1.6082971955373297E9, 2020-12-18 16:13:15.537
86.0, -12942.2626953125, 6338.1943359375, -87170.328125, -77950.859375, -28806.546875, -46652.08984375, -34454.140625, -29549.541015625, -144868.046875, 187500.0, 187500.0, -187500.015625, -1284.5323486328125, -186162.984375, -187500.015625, -177885.125, -0.23800000548362732, 0.7640000581741333, 0.5300000309944153, 192.0, 0.0, 0.0, 0.0, 0.0, 0.0, 0.0, 0.0, 0.0, 0.0, 1.6082971955373356E9, 2020-12-18 16:13:15.537
88.0, -12983.1220703125, 6269.39599609375, -87206.375, -77986.0859375, -28843.361328125, -46690.51171875, -34503.91796875, -29588.61328125, -144277.78125, 187500.0, 187500.0, -187500.015625, -1447.8565673828125, -185728.1875, -187500.015625, -178578.703125, -0.23400001227855682, 0.7660000324249268, 0.5360000133514404, 192.0, 124.0, 88.0, 11.5, 120.0, 8.0, 96.0, 0.0, 0.0, 0.0, 1.6082971955373416E9, 2020-12-18 16:13:15.537
90.0, -12970.1357421875, 6210.0966796875, -87185.5, -77964.734375, -28817.677734375, -46669.97265625, -34453.84765625, -29558.013671875, -146053.453125, 187500.0, 187500.0, -187500.015625, -2230.18994140625, -186543.1875, -187500.015625, -179119.90625, -0.23400001227855682, 0.7660000324249268, 0.5360000133514404, 192.0, 0.0, 0.0, 0.0, 0.0, 0.0, 0.0, 0.0, 0.0, 0.0, 1.6082971955373478E9, 2020-12-18 16:13:15.537
92.0, -12975.0087890625, 6353.95263671875, -87232.2578125, -78003.765625, -28863.1640625, -46715.79296875, -34509.4140625, -29618.474609375, -146167.265625, 187500.0, 187500.0, -187500.015625, -3029.041259765625, -187305.28125, -187500.015625, -179878.40625, -0.23400001227855682, 0.7660000324249268, 0.5360000133514404, 192.0, 0.0, 0.0, 0.0, 0.0, 0.0, 0.0, 0.0, 0.0, 0.0, 1.6082971955373535E9, 2020-12-18 16:13:15.537
94.0, -13016.6494140625, 6141.81201171875, -87206.0234375, -77992.03125, -28831.939453125, -46696.28125, -34479.30859375, -29583.560546875, -146489.484375, 187500.0, 187500.0, -187500.015625, -3187.559814453125, -186919.15625, -187500.015625, -180565.25, -0.23400001227855682, 0.7660000324249268, 0.5360000133514404, 192.0, 0.0, 0.0, 0.0, 0.0, 0.0, 0.0, 0.0, 0.0, 0.0, 1.6082971955373597E9, 2020-12-18 16:13:15.537
96.0, -13001.763671875, 6268.6357421875, -87227.1015625, -78003.671875, -28862.76171875, -46707.69921875, -34521.23828125, -29610.875, -147991.859375, 187500.0, 187500.0, -187500.015625, -4368.73779296875, -187500.015625, -187500.015625, -181239.296875, -0.23400001227855682, 0.7660000324249268, 0.5360000133514404, 192.0, 0.0, 0.0, 0.0, 0.0, 0.0, 0.0, 0.0, 0.0, 0.0, 1.6082971955373657E9, 2020-12-18 16:13:15.537
98.0, -13035.134765625, 6216.5341796875, -87235.234375, -78009.265625, -28873.3125, -46719.75, -34523.4296875, -29607.23046875, -147252.28125, 187500.0, 187500.0, -187500.015625, -4527.7255859375, -187500.015625, -187500.015625, -182043.734375, -0.24000000953674316, 0.7640000581741333, 0.5400000214576721, 192.0, 124.0, 64.0, 11.5, 112.0, 8.0, 112.0, 0.0, 0.0, 0.0, 1.6082971955373716E9, 2020-12-18 16:13:15.537
100.0, -13045.7958984375, 6122.298828125, -87231.8828125, -78015.1875, -28868.818359375, -46727.34765625, -34516.9921875, -29606.11328125, -148836.140625, 187500.0, 187500.0, -187500.015625, -5269.46826171875, -187500.015625, -187500.015625, -182660.59375, -0.24000000953674316, 0.7640000581741333, 0.5400000214576721, 192.0, 0.0, 0.0, 0.0, 0.0, 0.0, 0.0, 0.0, 0.0, 0.0, 1.6082971955373776E9, 2020-12-18 16:13:15.537
102.0, -13046.1318359375, 6273.59814453125, -87260.671875, -78031.9921875, -28905.56640625, -46752.11328125, -34562.3671875, -29650.50390625, -148874.96875, 187500.0, 187500.0, -187500.015625, -6038.1669921875, -187500.015625, -187500.015625, -183467.21875, -0.24000000953674316, 0.7640000581741333, 0.5400000214576721, 192.0, 0.0, 0.0, 0.0, 0.0, 0.0, 0.0, 0.0, 0.0, 0.0, 1.6082971955373833E9, 2020-12-18 16:13:15.537
104.0, -13057.798828125, 6097.26513671875, -87225.6875, -78008.1015625, -28869.580078125, -46728.51171875, -34507.91796875, -29606.224609375, -149063.359375, 187500.0, 187500.0, -187500.015625, -6126.5908203125, -187500.015625, -187500.015625, -184197.359375, -0.24000000953674316, 0.7640000581741333, 0.5400000214576721, 192.0, 0.0, 0.0, 0.0, 0.0, 0.0, 0.0, 0.0, 0.0, 0.0, 1.6082971955373893E9, 2020-12-18 16:13:15.537
106.0, -13038.9794921875, 6243.73583984375, -87232.90625, -78003.09375, -28880.798828125, -46726.41015625, -34524.48046875, -29618.005859375, -150429.453125, 187500.0, 187500.0, -187500.015625, -7225.201171875, -187500.015625, -187500.015625, -184926.796875, -0.24000000953674316, 0.7640000581741333, 0.5400000214576721, 192.0, 0.0, 0.0, 0.0, 0.0, 0.0, 0.0, 0.0, 0.0, 0.0, 1.6082971955373952E9, 2020-12-18 16:13:15.537
108.0, -13073.7587890625, 6191.7236328125, -87261.7890625, -78033.2421875, -28904.91796875, -46758.9765625, -34552.33203125, -29647.576171875, -149573.578125, 187500.0, 187500.0, -187500.015625, -7354.55078125, -187500.015625, -187500.015625, -185806.3125, -0.242000013589859, 0.7580000162124634, 0.5400000214576721, 192.0, 124.0, 56.0, 11.5, 88.0, 8.0, 112.0, 0.0, 0.0, 0.0, 1.6082971955374017E9, 2020-12-18 16:13:15.537
110.0, -13055.5419921875, 6115.50390625, -87240.3046875, -78012.5, -28878.140625, -46736.8046875, -34531.4765625, -29623.302734375, -151084.21875, 187500.0, 187500.0, -187500.015625, -8056.46240234375, -187500.015625, -187500.015625, -186518.375, -0.242000013589859, 0.7580000162124634, 0.5400000214576721, 192.0, 0.0, 0.0, 0.0, 0.0, 0.0, 0.0, 0.0, 0.0, 0.0, 1.6082971955374076E9, 2020-12-18 16:13:15.537
112.0, -13046.6005859375, 6273.7099609375, -87261.4296875, -78025.421875, -28907.197265625, -46758.28125, -34555.90625, -29652.5390625, -151041.734375, 187500.0, 187500.0, -187500.015625, -8838.728515625, -187500.015625, -187500.015625, -187337.15625, -0.242000013589859, 0.7580000162124634, 0.5400000214576721, 192.0, 0.0, 0.0, 0.0, 0.0, 0.0, 0.0, 0.0, 0.0, 0.0, 1.6082971955374134E9, 2020-12-18 16:13:15.537
114.0, -13071.43359375, 6105.44580078125, -87231.3203125, -78005.21875, -28879.66015625, -46736.734375, -34534.13671875, -29628.263671875, -151092.421875, 187500.0, 187500.0, -187500.015625, -8948.900390625, -187500.015625, -187500.015625, -187500.015625, -0.242000013589859, 0.7580000162124634, 0.5400000214576721, 192.0, 0.0, 0.0, 0.0, 0.0, 0.0, 0.0, 0.0, 0.0, 0.0, 1.6082971955374193E9, 2020-12-18 16:13:15.537
116.0, -13053.8203125, 6233.923828125, -87248.265625, -78007.0234375, -28900.55859375, -46747.3515625, -34554.1640625, -29647.732421875, -152435.53125, 187500.0, 187500.0, -187500.015625, -10081.3740234375, -187500.015625, -187500.015625, -187500.015625, -0.242000013589859, 0.7580000162124634, 0.5400000214576721, 192.0, 0.0, 0.0, 0.0, 0.0, 0.0, 0.0, 0.0, 0.0, 0.0, 1.6082971955374265E9, 2020-12-18 16:13:15.537
118.0, -13073.8251953125, 6219.43994140625, -87264.6953125, -78021.890625, -28912.494140625, -46759.4453125, -34551.01171875, -29646.435546875, -151505.578125, 187500.0, 187500.0, -187500.015625, -10265.10546875, -187500.015625, -187500.015625, -187500.015625, -0.23200000822544098, 0.7600000500679016, 0.5580000281333923, 192.0, 124.0, 96.0, 11.5, 96.0, 8.5, 56.0, 0.0, 0.0, 0.0, 1.6082971955374324E9, 2020-12-18 16:13:15.537
120.0, -13065.3984375, 6114.65478515625, -87239.90625, -77996.453125, -28889.115234375, -46736.19921875, -34541.9375, -29635.05859375, -152905.28125, 187500.0, 187500.0, -187500.015625, -10994.15234375, -187500.015625, -187500.015625, -187500.015625, -0.23200000822544098, 0.7600000500679016, 0.5580000281333923, 192.0, 0.0, 0.0, 0.0, 0.0, 0.0, 0.0, 0.0, 0.0, 0.0, 1.6082971960165536E9, 2020-12-18 16:13:16.016
122.0, -13064.0576171875, 6269.55224609375, -87270.953125, -78016.546875, -28925.79296875, -46759.4453125, -34578.03515625, -29667.0, -152789.40625, 187500.0, 187500.0, -187500.015625, -11829.9951171875, -187500.015625, -187500.015625, -187500.015625, -0.23200000822544098, 0.7600000500679016, 0.5580000281333923, 192.0, 0.0, 0.0, 0.0, 0.0, 0.0, 0.0, 0.0, 0.0, 0.0, 1.6082971960167072E9, 2020-12-18 16:13:16.016
124.0, -13075.0771484375, 6096.7509765625, -87246.2109375, -78005.3515625, -28892.66796875, -46747.12890625, -34538.67578125, -29639.015625, -152739.984375, 187500.0, 187500.0, -187500.015625, -11976.9140625, -187500.015625, -187500.015625, -187500.015625, -0.23200000822544098, 0.7600000500679016, 0.5580000281333923, 192.0, 0.0, 0.0, 0.0, 0.0, 0.0, 0.0, 0.0, 0.0, 0.0, 1.6082971960167131E9, 2020-12-18 16:13:16.016
126.0, -13060.4140625, 6226.525390625, -87257.8984375, -78006.0625, -28912.16015625, -46755.46484375, -34557.31640625, -29653.142578125, -154003.890625, 187500.0, 187500.0, -187500.015625, -13162.62890625, -187500.015625, -187500.015625, -187500.015625, -0.23200000822544098, 0.7600000500679016, 0.5580000281333923, 192.0, 0.0, 0.0, 0.0, 0.0, 0.0, 0.0, 0.0, 0.0, 0.0, 1.608297196016719E9, 2020-12-18 16:13:16.016
128.0, -13092.01953125, 6200.37353515625, -87270.8203125, -78020.2578125, -28915.646484375, -46777.9296875, -34562.74609375, -29669.837890625, -152994.875, 187500.0, 187500.0, -187500.015625, -13420.5234375, -187500.015625, -187500.015625, -187500.015625, -0.23200000822544098, 0.7620000243186951, 0.5560000538825989, 192.0, 124.0, 96.0, 11.5, 104.0, 8.5, 48.0, 0.0, 0.0, 0.0, 1.6082971960167253E9, 2020-12-18 16:13:16.016
130.0, -13074.0263671875, 6122.74609375, -87245.1328125, -78002.890625, -28893.181640625, -46758.52734375, -34534.71875, -29642.7265625, -154316.578125, 187500.0, 187500.0, -187500.015625, -14219.732421875, -187500.015625, -187500.015625, -187500.015625, -0.23200000822544098, 0.7620000243186951, 0.5560000538825989, 192.0, 0.0, 0.0, 0.0, 0.0, 0.0, 0.0, 0.0, 0.0, 0.0, 1.6082971960167313E9, 2020-12-18 16:13:16.016
132.0, -13085.0009765625, 6256.6552734375, -87281.953125, -78032.59375, -28941.595703125, -46788.5234375, -34586.75390625, -29688.994140625, -154185.75, 187500.0, 187500.0, -187500.015625, -15143.9765625, -187500.015625, -187500.015625, -187500.015625, -0.23200000822544098, 0.7620000243186951, 0.5560000538825989, 192.0, 0.0, 0.0, 0.0, 0.0, 0.0, 0.0, 0.0, 0.0, 0.0, 1.6082971960167377E9, 2020-12-18 16:13:16.016
134.0, -13102.9716796875, 6067.29150390625, -87255.9765625, -78020.328125, -28906.34765625, -46770.95703125, -34546.98828125, -29651.734375, -154064.109375, 187500.0, 187500.0, -187500.015625, -15354.150390625, -187500.015625, -187500.015625, -187500.015625, -0.23200000822544098, 0.7620000243186951, 0.5560000538825989, 192.0, 0.0, 0.0, 0.0, 0.0, 0.0, 0.0, 0.0, 0.0, 0.0, 1.6082971960167444E9, 2020-12-18 16:13:16.016
136.0, -13082.9677734375, 6196.57373046875, -87270.375, -78027.9453125, -28926.822265625, -46779.5859375, -34578.55078125, -29669.8828125, -155300.78125, 187500.0, 187500.0, -187500.015625, -16631.775390625, -187500.015625, -187500.015625, -187500.015625, -0.23100000619888306, 0.7610000371932983, 0.5550000369548798, 192.0, 124.0, 104.0, 11.5, 96.0, 8.5, 40.0, 0.0, 0.0, 0.0, 1.6082971960167503E9, 2020-12-18 16:13:16.016
138.0, -13123.2451171875, 6159.06787109375, -87290.9140625, -78049.8515625, -28947.2734375, -46801.80078125, -34602.62109375, -29690.447265625, -154258.84375, 187500.0, 187500.0, -187500.015625, -16925.947265625, -187500.015625, -187500.015625, -187500.015625, -0.23100000619888306, 0.7610000371932983, 0.5550000369548798, 192.0, 0.0, 0.0, 0.0, 0.0, 0.0, 0.0, 0.0, 0.0, 0.0, 1.6082971960167563E9, 2020-12-18 16:13:16.016
140.0, -13135.091796875, 6067.2021484375, -87290.9765625, -78050.9453125, -28946.46875, -46803.79296875, -34596.921875, -29695.1640625, -155587.6875, 187500.0, 187500.0, -187500.015625, -17782.533203125, -187500.015625, -187500.015625, -187500.015625, -0.23100000619888306, 0.7610000371932983, 0.5550000369548798, 192.0, 0.0, 0.0, 0.0, 0.0, 0.0, 0.0, 0.0, 0.0, 0.0, 1.6082971960167625E9, 2020-12-18 16:13:16.016
142.0, -13136.1201171875, 6229.96728515625, -87325.2421875, -78073.0078125, -28983.05859375, -46829.6953125, -34621.01953125, -29722.298828125, -155588.859375, 187500.0, 187500.0, -187500.015625, -18845.603515625, -187500.015625, -187500.015625, -187500.015625, -0.23100000619888306, 0.7610000371932983, 0.5550000369548798, 192.0, 0.0, 0.0, 0.0, 0.0, 0.0, 0.0, 0.0, 0.0, 0.0, 1.60829719601677E9, 2020-12-18 16:13:16.016
144.0, -13152.212890625, 6045.029296875, -87300.7734375, -78059.4375, -28955.052734375, -46806.71875, -34585.48046875, -29678.869140625, -155527.921875, 187500.0, 187500.0, -187500.015625, -19138.61328125, -187500.015625, -187500.015625, -187500.015625, -0.23100000619888306, 0.7610000371932983, 0.5550000369548798, 192.0, 0.0, 0.0, 0.0, 0.0, 0.0, 0.0, 0.0, 0.0, 0.0, 1.608297196016776E9, 2020-12-18 16:13:16.016
146.0, -13143.763671875, 6157.63720703125, -87320.125, -78069.34375, -28985.048828125, -46828.46875, -34625.30859375, -29719.548828125, -156947.578125, 187500.0, 187500.0, -187500.015625, -20553.703125, -187500.015625, -187500.015625, -187500.015625, -0.23350001126527786, 0.7615000307559967, 0.5535000413656235, 192.0, 124.0, 80.0, 11.5, 104.0, 8.5, 32.0, 0.0, 0.0, 0.0, 1.6082971960167823E9, 2020-12-18 16:13:16.016
148.0, -13158.494140625, 6136.9169921875, -87327.7734375, -78078.28125, -29000.896484375, -46849.41015625, -34660.71484375, -29747.80078125, -156051.046875, 187500.0, 187500.0, -187500.015625, -20955.072265625, -187500.015625, -187500.015625, -187500.015625, -0.23350001126527786, 0.7615000307559967, 0.5535000413656235, 192.0, 0.0, 0.0, 0.0, 0.0, 0.0, 0.0, 0.0, 0.0, 0.0, 1.6082971960167882E9, 2020-12-18 16:13:16.016
150.0, -13131.4033203125, 6060.92138671875, -87294.7578125, -78043.90625, -28969.0, -46811.32421875, -34618.3359375, -29699.90234375, -157432.34375, 187500.0, 187500.0, -187500.015625, -21878.7578125, -187500.015625, -187500.015625, -187500.015625, -0.23350001126527786, 0.7615000307559967, 0.5535000413656235, 192.0, 0.0, 0.0, 0.0, 0.0, 0.0, 0.0, 0.0, 0.0, 0.0, 1.608297196016799E9, 2020-12-18 16:13:16.016
152.0, -13153.7548828125, 6217.919921875, -87334.921875, -78073.2109375, -28997.810546875, -46842.66015625, -34613.55078125, -29728.376953125, -157453.90625, 187500.0, 187500.0, -187500.015625, -22969.45703125, -187500.015625, -187500.015625, -187500.015625, -0.23350001126527786, 0.7615000307559967, 0.5535000413656235, 192.0, 0.0, 0.0, 0.0, 0.0, 0.0, 0.0, 0.0, 0.0, 0.0, 1.6082971960168047E9, 2020-12-18 16:13:16.016
154.0, -13164.08203125, 6043.5986328125, -87313.8671875, -78058.6796875, -28971.2578125, -46821.62890625, -34597.99609375, -29702.78515625, -157414.90625, 187500.0, 187500.0, -187500.015625, -23273.060546875, -187500.015625, -187500.015625, -187500.015625, -0.23350001126527786, 0.7615000307559967, 0.5535000413656235, 192.0, 0.0, 0.0, 0.0, 0.0, 0.0, 0.0, 0.0, 0.0, 0.0, 1.608297196016811E9, 2020-12-18 16:13:16.016
156.0, -13159.7900390625, 6146.03662109375, -87345.875, -78075.828125, -29001.5, -46840.89453125, -34631.1875, -29730.1875, -158831.875, 187500.0, 187500.0, -187500.015625, -24735.556640625, -187500.015625, -187500.015625, -187500.015625, -0.23075001314282417, 0.7567500323057175, 0.5497500225901604, 192.0, 124.0, 112.0, 11.5, 64.0, 8.5, 8.0, 0.0, 0.0, 0.0, 1.6082971960168169E9, 2020-12-18 16:13:16.016
158.0, -13181.9189453125, 6126.65771484375, -87363.3515625, -78092.609375, -29014.955078125, -46855.06640625, -34641.4921875, -29739.017578125, -157947.5, 187500.0, 187500.0, -187500.015625, -25149.556640625, -187500.015625, -187500.015625, -187500.015625, -0.23075001314282417, 0.7567500323057175, 0.5497500225901604, 192.0, 0.0, 0.0, 0.0, 0.0, 0.0, 0.0, 0.0, 0.0, 0.0, 1.608297196016823E9, 2020-12-18 16:13:16.016
160.0, -13150.4248046875, 6053.7685546875, -87315.140625, -78051.21875, -28967.859375, -46817.58203125, -34590.12890625, -29695.408203125, -159325.3125, 187500.0, 187500.0, -187500.015625, -26108.177734375, -187500.015625, -187500.015625, -187500.015625, -0.23075001314282417, 0.7567500323057175, 0.5497500225901604, 192.0, 0.0, 0.0, 0.0, 0.0, 0.0, 0.0, 0.0, 0.0, 0.0, 1.608297196016829E9, 2020-12-18 16:13:16.016
162.0, -13179.3037109375, 6186.0908203125, -87380.4765625, -78110.421875, -29046.76171875, -46882.19921875, -34672.65234375, -29775.78515625, -159322.359375, 187500.0, 187500.0, -187500.015625, -27214.74609375, -187500.015625, -187500.015625, -187500.015625, -0.23075001314282417, 0.7567500323057175, 0.5497500225901604, 192.0, 0.0, 0.0, 0.0, 0.0, 0.0, 0.0, 0.0, 0.0, 0.0, 1.608297196016835E9, 2020-12-18 16:13:16.016
164.0, -13168.1279296875, 6019.4140625, -87328.7578125, -78071.0390625, -28995.150390625, -46836.06640625, -34618.15625, -29715.279296875, -159260.171875, 187500.0, 187500.0, -187500.015625, -27462.828125, -187500.015625, -187500.015625, -187500.015625, -0.23075001314282417, 0.7567500323057175, 0.5497500225901604, 192.0, 0.0, 0.0, 0.0, 0.0, 0.0, 0.0, 0.0, 0.0, 0.0, 1.608297196016841E9, 2020-12-18 16:13:16.016
166.0, -13158.8740234375, 6136.85009765625, -87341.9453125, -78078.9765625, -29016.384765625, -46853.03125, -34645.58203125, -29743.041015625, -160666.4375, 187500.0, 187500.0, -187500.015625, -28877.423828125, -187500.015625, -187500.015625, -187500.015625, -0.22937501408159733, 0.7563750371336937, 0.5498750172555447, 192.0, 124.0, 112.0, 11.5, 80.0, 8.5, 24.0, 0.0, 0.0, 0.0, 1.608297196016847E9, 2020-12-18 16:13:16.016
168.0, -13193.9658203125, 6106.67529296875, -87362.4609375, -78097.0625, -29035.919921875, -46873.59765625, -34671.0859375, -29762.978515625, -159720.671875, 187500.0, 187500.0, -187500.015625, -29207.404296875, -187500.015625, -187500.015625, -187500.015625, -0.22937501408159733, 0.7563750371336937, 0.5498750172555447, 192.0, 0.0, 0.0, 0.0, 0.0, 0.0, 0.0, 0.0, 0.0, 0.0, 1.608297196016853E9, 2020-12-18 16:13:16.016
170.0, -13175.2353515625, 6015.10009765625, -87323.3671875, -78058.6796875, -28994.435546875, -46836.46875, -34625.53125, -29724.287109375, -161094.984375, 187500.0, 187500.0, -187500.015625, -30094.947265625, -187500.015625, -187500.015625, -187500.015625, -0.22937501408159733, 0.7563750371336937, 0.5498750172555447, 192.0, 0.0, 0.0, 0.0, 0.0, 0.0, 0.0, 0.0, 0.0, 0.0, 1.6082971960168593E9, 2020-12-18 16:13:16.016
172.0, -13194.8603515625, 6164.63330078125, -87379.9140625, -78100.6328125, -29055.009765625, -46889.3984375, -34692.3203125, -29783.1171875, -161137.234375, 187500.0, 187500.0, -187500.015625, -31177.552734375, -187500.015625, -187500.015625, -187500.015625, -0.22937501408159733, 0.7563750371336937, 0.5498750172555447, 192.0, 0.0, 0.0, 0.0, 0.0, 0.0, 0.0, 0.0, 0.0, 0.0, 1.6082971960168653E9, 2020-12-18 16:13:16.016
174.0, -13198.9951171875, 5999.09619140625, -87339.703125, -78073.96875, -29012.51953125, -46853.61328125, -34642.83203125, -29734.390625, -161040.109375, 187500.0, 187500.0, -187500.015625, -31381.2890625, -187500.015625, -187500.015625, -187500.015625, -0.22937501408159733, 0.7563750371336937, 0.5498750172555447, 192.0, 0.0, 0.0, 0.0, 0.0, 0.0, 0.0, 0.0, 0.0, 0.0, 1.6082971960168712E9, 2020-12-18 16:13:16.016
176.0, -13172.1953125, 6118.0966796875, -87352.9140625, -78075.734375, -29027.404296875, -46862.62109375, -34668.42578125, -29759.4921875, -162491.34375, 187500.0, 187500.0, -187500.015625, -32792.53515625, -187500.015625, -187500.015625, -187500.015625, -0.2286875145509839, 0.7601875476539135, 0.5549375098198652, 192.0, 124.0, 112.0, 11.5, 112.0, 8.5, 64.0, 0.0, 0.0, 0.0, 1.6082971960168772E9, 2020-12-18 16:13:16.016
178.0, -13196.89453125, 6109.40185546875, -87368.140625, -78096.9453125, -29037.865234375, -46880.5234375, -34668.42578125, -29765.83984375, -161528.875, 187500.0, 187500.0, -187500.015625, -33099.6015625, -187500.015625, -187500.015625, -187500.015625, -0.2286875145509839, 0.7601875476539135, 0.5549375098198652, 192.0, 0.0, 0.0, 0.0, 0.0, 0.0, 0.0, 0.0, 0.0, 0.0, 1.6082971960168831E9, 2020-12-18 16:13:16.016
180.0, -13190.1884765625, 6010.25, -87338.5234375, -78072.8046875, -29004.94140625, -46848.62890625, -34628.28125, -29730.5234375, -162857.671875, 187500.0, 187500.0, -187500.015625, -33960.12109375, -187500.015625, -187500.015625, -187500.015625, -0.2286875145509839, 0.7601875476539135, 0.5549375098198652, 192.0, 0.0, 0.0, 0.0, 0.0, 0.0, 0.0, 0.0, 0.0, 0.0, 1.608297196016889E9, 2020-12-18 16:13:16.016
182.0, -13206.3486328125, 6153.07763671875, -87402.4921875, -78127.8359375, -29064.0390625, -46899.9921875, -34689.75, -29793.845703125, -162973.9375, 187500.0, 187500.0, -187500.015625, -35046.6171875, -187500.015625, -187500.015625, -187500.015625, -0.2286875145509839, 0.7601875476539135, 0.5549375098198652, 192.0, 0.0, 0.0, 0.0, 0.0, 0.0, 0.0, 0.0, 0.0, 0.0, 1.6082971960168953E9, 2020-12-18 16:13:16.016
184.0, -13199.3974609375, 5994.3798828125, -87358.4140625, -78095.8515625, -29010.1484375, -46861.19140625, -34630.2265625, -29733.876953125, -162853.9375, 187500.0, 187500.0, -187500.015625, -35228.78515625, -187500.015625, -187500.015625, -187500.015625, -0.2286875145509839, 0.7601875476539135, 0.5549375098198652, 192.0, 0.0, 0.0, 0.0, 0.0, 0.0, 0.0, 0.0, 0.0, 0.0, 1.6082971960169034E9, 2020-12-18 16:13:16.016
186.0, -13186.43359375, 6104.5517578125, -87388.8125, -78116.640625, -29035.361328125, -46879.18359375, -34637.35546875, -29755.021484375, -164317.0625, 187500.0, 187500.0, -187500.015625, -36643.89453125, -187500.015625, -187500.015625, -187500.015625, -0.23034376138821244, 0.7580937948077917, 0.5514687737450004, 192.0, 124.0, 96.0, 11.5, 80.0, 8.5, 16.0, 0.0, 0.0, 0.0, 1.6082971960169094E9, 2020-12-18 16:13:16.016
188.0, -13205.65625, 6096.974609375, -87411.1171875, -78141.625, -29057.310546875, -46900.70703125, -34671.64453125, -29780.8828125, -163408.125, 187500.0, 187500.0, -187500.015625, -36933.73046875, -187500.015625, -187500.015625, -187500.015625, -0.23034376138821244, 0.7580937948077917, 0.5514687737450004, 192.0, 0.0, 0.0, 0.0, 0.0, 0.0, 0.0, 0.0, 0.0, 0.0, 1.6082971960169153E9, 2020-12-18 16:13:16.016
190.0, -13201.0068359375, 6001.93505859375, -87378.1484375, -78115.34375, -29014.373046875, -46861.5703125, -34622.515625, -29730.703125, -164719.390625, 187500.0, 187500.0, -187500.015625, -37753.28125, -187500.015625, -187500.015625, -187500.015625, -0.23034376138821244, 0.7580937948077917, 0.5514687737450004, 192.0, 0.0, 0.0, 0.0, 0.0, 0.0, 0.0, 0.0, 0.0, 0.0, 1.6082971960169215E9, 2020-12-18 16:13:16.016
192.0, -13209.947265625, 6154.19482421875, -87435.3515625, -78159.796875, -29071.83984375, -46905.73828125, -34670.7265625, -29787.498046875, -164824.59375, 187500.0, 187500.0, -187500.015625, -38804.99609375, -187500.015625, -187500.015625, -187500.015625, -0.23034376138821244, 0.7580937948077917, 0.5514687737450004, 192.0, 0.0, 0.0, 0.0, 0.0, 0.0, 0.0, 0.0, 0.0, 0.0, 1.6082971960169277E9, 2020-12-18 16:13:16.016
194.0, -13204.7392578125, 6000.392578125, -87399.9453125, -78129.3359375, -29029.86328125, -46871.94140625, -34640.91015625, -29749.5, -164646.15625, 187500.0, 187500.0, -187500.015625, -38914.8984375, -187500.015625, -187500.015625, -187500.015625, -0.23034376138821244, 0.7580937948077917, 0.5514687737450004, 192.0, 0.0, 0.0, 0.0, 0.0, 0.0, 0.0, 0.0, 0.0, 0.0, 1.6082971960169349E9, 2020-12-18 16:13:16.016
196.0, -13196.0, 6089.7548828125, -87424.171875, -78144.2890625, -29056.6640625, -46895.1875, -34661.31640625, -29774.736328125, -166115.296875, 187500.0, 187500.0, -187500.015625, -40297.46875, -187500.015625, -187500.015625, -187500.015625, -0.2311718848068267, 0.7560469014570117, 0.5527343968860805, 192.0, 124.0, 96.0, 11.5, 72.0, 8.5, 40.0, 0.0, 0.0, 0.0, 1.6082971960169408E9, 2020-12-18 16:13:16.016
198.0, -13228.521484375, 6084.50244140625, -87443.59375, -78166.0390625, -29076.958984375, -46919.4375, -34680.36328125, -29798.47265625, -165215.421875, 187500.0, 187500.0, -187500.015625, -40559.20703125, -187500.015625, -187500.015625, -187500.015625, -0.2311718848068267, 0.7560469014570117, 0.5527343968860805, 192.0, 0.0, 0.0, 0.0, 0.0, 0.0, 0.0, 0.0, 0.0, 0.0, 1.6082971960169475E9, 2020-12-18 16:13:16.016
200.0, -13195.9775390625, 5991.49658203125, -87386.15625, -78114.984375, -29023.962890625, -46861.59375, -34626.47265625, -29737.05078125, -166570.734375, 187500.0, 187500.0, -187500.015625, -41345.046875, -187500.015625, -187500.015625, -187500.015625, -0.2311718848068267, 0.7560469014570117, 0.5527343968860805, 192.0, 0.0, 0.0, 0.0, 0.0, 0.0, 0.0, 0.0, 0.0, 0.0, 1.6082971960169537E9, 2020-12-18 16:13:16.016
202.0, -13208.1142578125, 6142.61669921875, -87437.8984375, -78153.8515625, -29084.580078125, -46908.28515625, -34696.61328125, -29794.740234375, -166702.328125, 187500.0, 187500.0, -187500.015625, -42395.87109375, -187500.015625, -187500.015625, -187500.015625, -0.2311718848068267, 0.7560469014570117, 0.5527343968860805, 192.0, 0.0, 0.0, 0.0, 0.0, 0.0, 0.0, 0.0, 0.0, 0.0, 1.6082971960169597E9, 2020-12-18 16:13:16.016
204.0, -13223.5146484375, 5966.619140625, -87394.109375, -78122.3828125, -29035.98828125, -46881.484375, -34647.97265625, -29754.193359375, -166520.375, 187500.0, 187500.0, -187500.015625, -42486.015625, -187500.015625, -187500.015625, -187500.015625, -0.2311718848068267, 0.7560469014570117, 0.5527343968860805, 192.0, 0.0, 0.0, 0.0, 0.0, 0.0, 0.0, 0.0, 0.0, 0.0, 1.6082971960169652E9, 2020-12-18 16:13:16.016
206.0, -13220.1845703125, 6061.0107421875, -87410.78125, -78126.453125, -29066.9453125, -46895.2109375, -34688.05078125, -29782.111328125, -168036.9375, 187500.0, 187500.0, -187500.015625, -43860.9375, -187500.015625, -187500.015625, -187500.015625, -0.23258594854269177, 0.7570234588347375, 0.5543672253843397, 192.0, 124.0, 88.0, 11.5, 88.0, 8.5, 48.0, 0.0, 0.0, 0.0, 1.608297196016971E9, 2020-12-18 16:13:16.016
208.0, -13236.322265625, 6067.1796875, -87417.15625, -78133.203125, -29074.923828125, -46904.328125, -34686.75390625, -29785.6875, -167122.890625, 187500.0, 187500.0, -187500.015625, -44120.15234375, -187500.015625, -187500.015625, -187500.015625, -0.23258594854269177, 0.7570234588347375, 0.5543672253843397, 192.0, 0.0, 0.0, 0.0, 0.0, 0.0, 0.0, 0.0, 0.0, 0.0, 1.6082971960169773E9, 2020-12-18 16:13:16.016
210.0, -13227.8291015625, 5960.2265625, -87381.078125, -78101.9296875, -29040.345703125, -46877.1484375, -34651.28125, -29754.484375, -168413.125, 187500.0, 187500.0, -187500.015625, -44878.61328125, -187500.015625, -187500.015625, -187500.015625, -0.23258594854269177, 0.7570234588347375, 0.5543672253843397, 192.0, 0.0, 0.0, 0.0, 0.0, 0.0, 0.0, 0.0, 0.0, 0.0, 1.6082971960169845E9, 2020-12-18 16:13:16.016
212.0, -13239.83203125, 6105.4013671875, -87437.203125, -78144.0, -29092.26953125, -46925.83203125, -34697.08203125, -29819.640625, -168618.71875, 187500.0, 187500.0, -187500.015625, -45941.19140625, -187500.015625, -187500.015625, -187500.015625, -0.23258594854269177, 0.7570234588347375, 0.5543672253843397, 192.0, 0.0, 0.0, 0.0, 0.0, 0.0, 0.0, 0.0, 0.0, 0.0, 1.6082971960169969E9, 2020-12-18 16:13:16.016
214.0, -13260.9091796875, 5945.98828125, -87401.84375, -78121.1796875, -29055.6796875, -46896.83984375, -34666.97265625, -29776.12109375, -168388.203125, 187500.0, 187500.0, -187500.015625, -46017.5234375, -187500.015625, -187500.015625, -187500.015625, -0.23258594854269177, 0.7570234588347375, 0.5543672253843397, 192.0, 0.0, 0.0, 0.0, 0.0, 0.0, 0.0, 0.0, 0.0, 0.0, 1.6082971960170028E9, 2020-12-18 16:13:16.017
216.0, -13231.3828125, 6066.46435546875, -87403.3828125, -78114.4296875, -29066.609375, -46890.3828125, -34664.203125, -29771.830078125, -169920.921875, 187500.0, 187500.0, -187500.015625, -47390.3671875, -187500.015625, -187500.015625, -187500.015625, -0.23229297838406637, 0.7565117503982037, 0.5511836315272376, 192.0, 124.0, 96.0, 11.5, 80.0, 8.5, 16.0, 0.0, 0.0, 0.0, 1.6082971960170088E9, 2020-12-18 16:13:16.017
218.0, -13268.5986328125, 6049.92431640625, -87447.4453125, -78158.2578125, -29113.123046875, -46937.74609375, -34710.87109375, -29812.46484375, -168988.96875, 187500.0, 187500.0, -187500.015625, -47661.29296875, -187500.015625, -187500.015625, -187500.015625, -0.23229297838406637, 0.7565117503982037, 0.5511836315272376, 192.0, 0.0, 0.0, 0.0, 0.0, 0.0, 0.0, 0.0, 0.0, 0.0, 1.608297196017017E9, 2020-12-18 16:13:16.017
220.0, -13234.556640625, 5961.12060546875, -87380.5859375, -78100.8125, -29045.845703125, -46872.92578125, -34637.0234375, -29746.884765625, -170307.53125, 187500.0, 187500.0, -187500.015625, -48413.20703125, -187500.015625, -187500.015625, -187500.015625, -0.23229297838406637, 0.7565117503982037, 0.5511836315272376, 192.0, 0.0, 0.0, 0.0, 0.0, 0.0, 0.0, 0.0, 0.0, 0.0, 1.6082971960170228E9, 2020-12-18 16:13:16.017
222.0, -13258.80859375, 6116.82275390625, -87438.609375, -78143.078125, -29109.2578125, -46927.015625, -34697.86328125, -29815.548828125, -170488.171875, 187500.0, 187500.0, -187500.015625, -49499.79296875, -187500.015625, -187500.015625, -187500.015625, -0.23229297838406637, 0.7565117503982037, 0.5511836315272376, 192.0, 0.0, 0.0, 0.0, 0.0, 0.0, 0.0, 0.0, 0.0, 0.0, 1.608297196017029E9, 2020-12-18 16:13:16.017
224.0, -13248.19140625, 5969.27880859375, -87397.6875, -78114.0703125, -29066.36328125, -46891.85546875, -34659.1484375, -29767.42578125, -170234.59375, 187500.0, 187500.0, -187500.015625, -49561.2578125, -187500.015625, -187500.015625, -187500.015625, -0.23229297838406637, 0.7565117503982037, 0.5511836315272376, 192.0, 0.0, 0.0, 0.0, 0.0, 0.0, 0.0, 0.0, 0.0, 0.0, 1.608297196017035E9, 2020-12-18 16:13:16.017
226.0, -13251.521484375, 6064.63134765625, -87414.4296875, -78124.6640625, -29093.23046875, -46905.08984375, -34679.98046875, -29787.05078125, -171758.15625, 187500.0, 187500.0, -187500.015625, -50917.29296875, -187500.015625, -187500.015625, -187500.015625, -0.23414649735786952, 0.7592558873584494, 0.5535918427049182, 192.0, 124.0, 80.0, 11.5, 104.0, 8.5, 48.0, 0.0, 0.0, 0.0, 1.608297196017041E9, 2020-12-18 16:13:16.017
228.0, -13270.5654296875, 6065.3466796875, -87432.3984375, -78144.625, -29114.888671875, -46930.16796875, -34701.6171875, -29810.765625, -170872.703125, 187500.0, 187500.0, -187500.015625, -51183.75, -187500.015625, -187500.015625, -187500.015625, -0.23414649735786952, 0.7592558873584494, 0.5535918427049182, 192.0, 0.0, 0.0, 0.0, 0.0, 0.0, 0.0, 0.0, 0.0, 0.0, 1.6082971960170472E9, 2020-12-18 16:13:16.017
230.0, -13248.0576171875, 5975.26904296875, -87387.40625, -78106.46875, -29063.16796875, -46892.19140625, -34649.359375, -29756.80859375, -172116.359375, 187500.0, 187500.0, -187500.015625, -51901.6875, -187500.015625, -187500.015625, -187500.015625, -0.23414649735786952, 0.7592558873584494, 0.5535918427049182, 192.0, 0.0, 0.0, 0.0, 0.0, 0.0, 0.0, 0.0, 0.0, 0.0, 1.6082971960170531E9, 2020-12-18 16:13:16.017
232.0, -13276.9580078125, 6128.26708984375, -87457.90625, -78161.4765625, -29134.8046875, -46955.24609375, -34726.0703125, -29836.248046875, -172358.296875, 187500.0, 187500.0, -187500.015625, -52990.57421875, -187500.015625, -187500.015625, -187500.015625, -0.23414649735786952, 0.7592558873584494, 0.5535918427049182, 192.0, 0.0, 0.0, 0.0, 0.0, 0.0, 0.0, 0.0, 0.0, 0.0, 1.608297196017059E9, 2020-12-18 16:13:16.017
234.0, -13273.806640625, 5968.29541015625, -87421.671875, -78134.65625, -29092.60546875, -46922.7265625, -34678.6171875, -29795.767578125, -172127.671875, 187500.0, 187500.0, -187500.015625, -53053.76171875, -187500.015625, -187500.015625, -187500.015625, -0.23414649735786952, 0.7592558873584494, 0.5535918427049182, 192.0, 0.0, 0.0, 0.0, 0.0, 0.0, 0.0, 0.0, 0.0, 0.0, 1.608297196017065E9, 2020-12-18 16:13:16.017
236.0, -13256.23828125, 6072.1865234375, -87429.3828125, -78130.3671875, -29104.83203125, -46918.14453125, -34694.109375, -29807.056640625, -173732.328125, 187500.0, 187500.0, -187500.015625, -54424.26171875, -187500.015625, -187500.015625, -187500.015625, -0.23407325481821317, 0.7606279558385722, 0.5577959394722711, 192.0, 124.0, 88.0, 11.5, 104.0, 8.5, 72.0, 0.0, 0.0, 0.0, 1.608297196017071E9, 2020-12-18 16:13:16.017
238.0, -13278.09765625, 6087.9892578125, -87446.1015625, -78146.5, -29123.0703125, -46931.0390625, -34698.7578125, -29807.927734375, -172830.09375, 187500.0, 187500.0, -187500.015625, -54718.8359375, -187500.015625, -187500.015625, -187500.015625, -0.23407325481821317, 0.7606279558385722, 0.5577959394722711, 192.0, 0.0, 0.0, 0.0, 0.0, 0.0, 0.0, 0.0, 0.0, 0.0, 1.6082971960170772E9, 2020-12-18 16:13:16.017
240.0, -13270.8564453125, 5962.7744140625, -87413.671875, -78120.90625, -29088.693359375, -46906.51953125, -34668.6484375, -29776.970703125, -174060.828125, 187500.0, 187500.0, -187500.015625, -55429.3515625, -187500.015625, -187500.015625, -187500.015625, -0.23407325481821317, 0.7606279558385722, 0.5577959394722711, 192.0, 0.0, 0.0, 0.0, 0.0, 0.0, 0.0, 0.0, 0.0, 0.0, 1.608297196497406E9, 2020-12-18 16:13:16.497
242.0, -13270.587890625, 6124.02001953125, -87462.8203125, -78157.9453125, -29140.66015625, -46949.66015625, -34721.84765625, -29829.228515625, -174372.703125, 187500.0, 187500.0, -187500.015625, -56531.984375, -187500.015625, -187500.015625, -187500.015625, -0.23407325481821317, 0.7606279558385722, 0.5577959394722711, 192.0, 0.0, 0.0, 0.0, 0.0, 0.0, 0.0, 0.0, 0.0, 0.0, 1.608297196497566E9, 2020-12-18 16:13:16.497
244.0, -13286.79296875, 5971.93896484375, -87422.34375, -78131.28125, -29089.966796875, -46916.01953125, -34653.25, -29775.181640625, -174073.703125, 187500.0, 187500.0, -187500.015625, -56576.578125, -187500.015625, -187500.015625, -187500.015625, -0.23407325481821317, 0.7606279558385722, 0.5577959394722711, 192.0, 0.0, 0.0, 0.0, 0.0, 0.0, 0.0, 0.0, 0.0, 0.0, 1.608297196497572E9, 2020-12-18 16:13:16.497
246.0, -13275.3037109375, 6061.30126953125, -87445.71875, -78144.6015625, -29118.779296875, -46928.0, -34691.58203125, -29800.640625, -175685.625, 187500.0, 187500.0, -187500.015625, -57929.83984375, -187500.015625, -187500.015625, -187500.015625, -0.23603663015092025, 0.7593139860255178, 0.5578979838028317, 192.0, 124.0, 72.0, 11.5, 88.0, 8.5, 56.0, 0.0, 0.0, 0.0, 1.608297196497578E9, 2020-12-18 16:13:16.497
248.0, -13296.4931640625, 6071.404296875, -87456.5625, -78152.2265625, -29131.1171875, -46937.23046875, -34693.1484375, -29806.7421875, -174842.140625, 187500.0, 187500.0, -187500.015625, -58219.38671875, -187500.015625, -187500.015625, -187500.015625, -0.23603663015092025, 0.7593139860255178, 0.5578979838028317, 192.0, 0.0, 0.0, 0.0, 0.0, 0.0, 0.0, 0.0, 0.0, 0.0, 1.608297196497584E9, 2020-12-18 16:13:16.497
250.0, -13286.5693359375, 5944.87109375, -87423.546875, -78126.359375, -29095.130859375, -46912.44140625, -34662.03515625, -29779.228515625, -176042.0625, 187500.0, 187500.0, -187500.015625, -58906.79296875, -187500.015625, -187500.015625, -187500.015625, -0.23603663015092025, 0.7593139860255178, 0.5578979838028317, 192.0, 0.0, 0.0, 0.0, 0.0, 0.0, 0.0, 0.0, 0.0, 0.0, 1.60829719649759E9, 2020-12-18 16:13:16.497
252.0, -13293.498046875, 6112.53125, -87475.46875, -78162.59375, -29155.369140625, -46954.21875, -34730.38671875, -29838.03515625, -176392.3125, 187500.0, 187500.0, -187500.015625, -60024.33203125, -187500.015625, -187500.015625, -187500.015625, -0.23603663015092025, 0.7593139860255178, 0.5578979838028317, 192.0, 0.0, 0.0, 0.0, 0.0, 0.0, 0.0, 0.0, 0.0, 0.0, 1.608297196497604E9, 2020-12-18 16:13:16.497
254.0, -13306.484375, 5951.28564453125, -87443.578125, -78139.640625, -29126.84765625, -46935.375, -34704.8828125, -29811.4375, -176089.234375, 187500.0, 187500.0, -187500.015625, -60070.6015625, -187500.015625, -187500.015625, -187500.015625, -0.23603663015092025, 0.7593139860255178, 0.5578979838028317, 192.0, 0.0, 0.0, 0.0, 0.0, 0.0, 0.0, 0.0, 0.0, 0.0, 1.6082971964976103E9, 2020-12-18 16:13:16.497
0.0, -13288.669921875, 6040.11181640625, -87444.2890625, -78136.015625, -29133.21875, -46934.50390625, -34707.453125, -29821.697265625, -177770.171875, 187500.0, 187500.0, -187500.015625, -61428.625, -187500.015625, -187500.015625, -187500.015625, -0.23601832324129646, 0.763656996350619, 0.5569490188427153, 192.0, 124.0, 80.0, 12.0, 0.0, 8.5, 48.0, 0.0, 0.0, 0.0, 1.6082971964976163E9, 2020-12-18 16:13:16.497
2.0, -13293.5205078125, 6073.728515625, -87448.9140625, -78139.53125, -29138.001953125, -46938.70703125, -34711.72265625, -29818.58984375, -176923.21875, 187500.0, 187500.0, -187500.015625, -61739.359375, -187500.015625, -187500.015625, -187500.015625, -0.23601832324129646, 0.763656996350619, 0.5569490188427153, 192.0, 0.0, 0.0, 0.0, 0.0, 0.0, 0.0, 0.0, 0.0, 0.0, 1.6082971964976225E9, 2020-12-18 16:13:16.497
4.0, -13285.33984375, 5938.388671875, -87429.984375, -78121.0859375, -29122.66796875, -46924.15625, -34699.25, -29804.306640625, -178109.625, 187500.0, 187500.0, -187500.015625, -62420.62109375, -187500.015625, -187500.015625, -187500.015625, -0.23601832324129646, 0.763656996350619, 0.5569490188427153, 192.0, 0.0, 0.0, 0.0, 0.0, 0.0, 0.0, 0.0, 0.0, 0.0, 1.6082971964976287E9, 2020-12-18 16:13:16.497
6.0, -13308.5859375, 6103.1884765625, -87466.6875, -78144.84375, -29157.08984375, -46955.06640625, -34719.61328125, -29835.822265625, -178556.140625, 187500.0, 187500.0, -187500.015625, -63563.2421875, -187500.015625, -187500.015625, -187500.015625, -0.23601832324129646, 0.763656996350619, 0.5569490188427153, 192.0, 0.0, 0.0, 0.0, 0.0, 0.0, 0.0, 0.0, 0.0, 0.0, 1.608297196497635E9, 2020-12-18 16:13:16.497
8.0, -13301.2763671875, 5953.16357421875, -87419.6171875, -78107.140625, -29105.234375, -46916.62109375, -34672.71875, -29790.939453125, -178244.6875, 187500.0, 187500.0, -187500.015625, -63609.5546875, -187500.015625, -187500.015625, -187500.015625, -0.23601832324129646, 0.763656996350619, 0.5569490188427153, 192.0, 0.0, 0.0, 0.0, 0.0, 0.0, 0.0, 0.0, 0.0, 0.0, 1.6082971964976406E9, 2020-12-18 16:13:16.497
10.0, -13293.7890625, 6027.9970703125, -87435.84375, -78120.0390625, -29130.201171875, -46936.3359375, -34700.48046875, -29816.33203125, -179882.078125, 187500.0, 187500.0, -187500.015625, -64974.59765625, -187500.015625, -187500.015625, -187500.015625, -0.2370091643624619, 0.7618285232092603, 0.5564745363626571, 192.0, 124.0, 72.0, 11.5, 96.0, 8.5, 48.0, 0.0, 0.0, 0.0, 1.6082971964976466E9, 2020-12-18 16:13:16.497
12.0, -13289.7431640625, 6066.375, -87446.859375, -78126.8984375, -29142.986328125, -46948.31640625, -34713.30859375, -29832.291015625, -179034.140625, 187500.0, 187500.0, -187500.015625, -65312.3984375, -187500.015625, -187500.015625, -187500.015625, -0.2370091643624619, 0.7618285232092603, 0.5564745363626571, 192.0, 0.0, 0.0, 0.0, 0.0, 0.0, 0.0, 0.0, 0.0, 0.0, 1.6082971964976523E9, 2020-12-18 16:13:16.497
14.0, -13275.3486328125, 5953.431640625, -87408.5703125, -78101.890625, -29104.541015625, -46914.296875, -34673.8125, -29794.560546875, -180181.0, 187500.0, 187500.0, -187500.015625, -65993.34375, -187500.015625, -187500.015625, -187500.015625, -0.2370091643624619, 0.7618285232092603, 0.5564745363626571, 192.0, 0.0, 0.0, 0.0, 0.0, 0.0, 0.0, 0.0, 0.0, 0.0, 1.608297196497658E9, 2020-12-18 16:13:16.497
16.0, -13278.2099609375, 6119.99658203125, -87447.9140625, -78133.203125, -29148.9765625, -46948.5625, -34706.9140625, -29829.408203125, -180604.453125, 187500.0, 187500.0, -187500.015625, -67160.21875, -187500.015625, -187500.015625, -187500.015625, -0.2370091643624619, 0.7618285232092603, 0.5564745363626571, 192.0, 0.0, 0.0, 0.0, 0.0, 0.0, 0.0, 0.0, 0.0, 0.0, 1.608297196497664E9, 2020-12-18 16:13:16.497
18.0, -13274.87890625, 5966.68603515625, -87409.8671875, -78105.109375, -29106.0390625, -46909.29296875, -34664.046875, -29783.67578125, -180197.796875, 187500.0, 187500.0, -187500.015625, -67209.4375, -187500.015625, -187500.015625, -187500.015625, -0.2370091643624619, 0.7618285232092603, 0.5564745363626571, 192.0, 0.0, 0.0, 0.0, 0.0, 0.0, 0.0, 0.0, 0.0, 0.0, 1.6082971964976697E9, 2020-12-18 16:13:16.497
20.0, -13265.201171875, 6045.29736328125, -87418.359375, -78107.7421875, -29112.251953125, -46913.94140625, -34673.38671875, -29794.517578125, -181807.296875, 187500.0, 187500.0, -187500.015625, -68585.25, -187500.015625, -187500.015625, -187500.015625, -0.23950458897616045, 0.760914286638581, 0.5502372829632804, 192.0, 124.0, 56.0, 11.5, 96.0, 8.5, 0.0, 0.0, 0.0, 0.0, 1.6082971964976757E9, 2020-12-18 16:13:16.497
22.0, -13282.4345703125, 6079.24951171875, -87439.0390625, -78129.515625, -29132.591796875, -46941.41015625, -34694.77734375, -29816.599609375, -180905.984375, 187500.0, 187500.0, -187500.015625, -68948.3984375, -187500.015625, -187500.015625, -187500.015625, -0.23950458897616045, 0.760914286638581, 0.5502372829632804, 192.0, 0.0, 0.0, 0.0, 0.0, 0.0, 0.0, 0.0, 0.0, 0.0, 1.6082971964976816E9, 2020-12-18 16:13:16.497
24.0, -13265.1337890625, 5957.92431640625, -87398.6953125, -78101.6640625, -29089.609375, -46902.5859375, -34656.04296875, -29776.03125, -181974.78125, 187500.0, 187500.0, -187500.015625, -69618.59375, -187500.015625, -187500.015625, -187500.015625, -0.23950458897616045, 0.760914286638581, 0.5502372829632804, 192.0, 0.0, 0.0, 0.0, 0.0, 0.0, 0.0, 0.0, 0.0, 0.0, 1.6082971964976876E9, 2020-12-18 16:13:16.497
26.0, -13252.37109375, 6151.40087890625, -87430.8125, -78125.6953125, -29134.134765625, -46934.4375, -34705.08203125, -29821.8984375, -182354.390625, 187500.0, 187500.0, -187500.015625, -70805.5390625, -187500.015625, -187500.015625, -187500.015625, -0.23950458897616045, 0.760914286638581, 0.5502372829632804, 192.0, 0.0, 0.0, 0.0, 0.0, 0.0, 0.0, 0.0, 0.0, 0.0, 1.6082971964976935E9, 2020-12-18 16:13:16.497
28.0, -13266.20703125, 5988.34521484375, -87399.453125, -78102.0, -29098.21484375, -46913.96484375, -34663.890625, -29789.017578125, -181869.046875, 187500.0, 187500.0, -187500.015625, -70862.15625, -187500.015625, -187500.015625, -187500.015625, -0.23950458897616045, 0.760914286638581, 0.5502372829632804, 192.0, 0.0, 0.0, 0.0, 0.0, 0.0, 0.0, 0.0, 0.0, 0.0, 1.6082971964976993E9, 2020-12-18 16:13:16.497
30.0, -13257.8916015625, 6050.84033203125, -87400.953125, -78098.0859375, -29105.30078125, -46919.484375, -34680.49609375, -29808.3515625, -183478.3125, 187500.0, 187500.0, -187500.015625, -72247.515625, -187500.015625, -187500.015625, -187500.015625, -0.23875229722989388, 0.761457155478638, 0.5471186562635921, 192.0, 124.0, 72.0, 11.5, 104.0, 8.5, 0.0, 0.0, 0.0, 0.0, 1.608297196497707E9, 2020-12-18 16:13:16.497
32.0, -13264.0166015625, 6086.9609375, -87411.390625, -78104.546875, -29114.822265625, -46924.9140625, -34681.32421875, -29794.962890625, -182589.15625, 187500.0, 187500.0, -187500.015625, -72636.3515625, -187500.015625, -187500.015625, -187500.015625, -0.23875229722989388, 0.761457155478638, 0.5471186562635921, 192.0, 0.0, 0.0, 0.0, 0.0, 0.0, 0.0, 0.0, 0.0, 0.0, 1.6082971964977129E9, 2020-12-18 16:13:16.497
34.0, -13259.9482421875, 5958.57275390625, -87380.25, -78080.140625, -29084.423828125, -46902.1171875, -34650.9921875, -29776.34375, -183622.6875, 187500.0, 187500.0, -187500.015625, -73304.734375, -187500.015625, -187500.015625, -187500.015625, -0.23875229722989388, 0.761457155478638, 0.5471186562635921, 192.0, 0.0, 0.0, 0.0, 0.0, 0.0, 0.0, 0.0, 0.0, 0.0, 1.6082971964977186E9, 2020-12-18 16:13:16.497
36.0, -13252.662109375, 6154.10546875, -87413.3984375, -78099.203125, -29117.705078125, -46922.14453125, -34683.89453125, -29805.15625, -184016.546875, 187500.0, 187500.0, -187500.015625, -74518.8359375, -187500.015625, -187500.015625, -187500.015625, -0.23875229722989388, 0.761457155478638, 0.5471186562635921, 192.0, 0.0, 0.0, 0.0, 0.0, 0.0, 0.0, 0.0, 0.0, 0.0, 1.6082971964977243E9, 2020-12-18 16:13:16.497
38.0, -13253.130859375, 5991.98828125, -87393.4375, -78086.84375, -29095.82421875, -46908.93359375, -34661.09375, -29783.318359375, -183480.5625, 187500.0, 187500.0, -187500.015625, -74580.5234375, -187500.015625, -187500.015625, -187500.015625, -0.23875229722989388, 0.761457155478638, 0.5471186562635921, 192.0, 0.0, 0.0, 0.0, 0.0, 0.0, 0.0, 0.0, 0.0, 0.0, 1.6082971964977317E9, 2020-12-18 16:13:16.497
40.0, -13247.3642578125, 6042.369140625, -87404.90625, -78089.484375, -29112.23046875, -46919.640625, -34670.52734375, -29786.470703125, -185099.375, 187500.0, 187500.0, -187500.015625, -75965.28125, -187500.015625, -187500.015625, -187500.015625, -0.2383761513567606, 0.758728598720154, 0.5435593388606321, 192.0, 124.0, 72.0, 11.5, 80.0, 8.0, 112.0, 0.0, 0.0, 0.0, 1.6082971964977376E9, 2020-12-18 16:13:16.497
42.0, -13248.9287109375, 6093.08544921875, -87415.2109375, -78100.59375, -29121.595703125, -46923.23828125, -34678.4609375, -29799.658203125, -184221.4375, 187500.0, 187500.0, -187500.015625, -76365.1328125, -187500.015625, -187500.015625, -187500.015625, -0.2383761513567606, 0.758728598720154, 0.5435593388606321, 192.0, 0.0, 0.0, 0.0, 0.0, 0.0, 0.0, 0.0, 0.0, 0.0, 1.6082971964977431E9, 2020-12-18 16:13:16.497
44.0, -13252.2373046875, 5955.57763671875, -87387.8515625, -78081.5234375, -29087.486328125, -46900.84375, -34638.2734375, -29767.984375, -185205.875, 187500.0, 187500.0, -187500.015625, -77015.2109375, -187500.015625, -187500.015625, -187500.015625, -0.2383761513567606, 0.758728598720154, 0.5435593388606321, 192.0, 0.0, 0.0, 0.0, 0.0, 0.0, 0.0, 0.0, 0.0, 0.0, 1.6082971964977496E9, 2020-12-18 16:13:16.497
46.0, -13253.466796875, 6123.505859375, -87427.1875, -78112.390625, -29131.720703125, -46933.51953125, -34688.3203125, -29813.962890625, -185629.75, 187500.0, 187500.0, -187500.015625, -78240.046875, -187500.015625, -187500.015625, -187500.015625, -0.2383761513567606, 0.758728598720154, 0.5435593388606321, 192.0, 0.0, 0.0, 0.0, 0.0, 0.0, 0.0, 0.0, 0.0, 0.0, 1.6082971964977572E9, 2020-12-18 16:13:16.497
48.0, -13262.6533203125, 5965.4345703125, -87397.6171875, -78095.046875, -29099.779296875, -46909.6953125, -34657.4296875, -29779.876953125, -185052.25, 187500.0, 187500.0, -187500.015625, -78285.375, -187500.015625, -187500.015625, -187500.015625, -0.2383761513567606, 0.758728598720154, 0.5435593388606321, 192.0, 0.0, 0.0, 0.0, 0.0, 0.0, 0.0, 0.0, 0.0, 0.0, 1.6082971964977646E9, 2020-12-18 16:13:16.497
50.0, -13248.90625, 6022.05126953125, -87414.2265625, -78102.6484375, -29118.7109375, -46926.32421875, -34668.203125, -29802.451171875, -186659.765625, 187500.0, 187500.0, -187500.015625, -79651.8671875, -187500.015625, -187500.015625, -187500.015625, -0.2361880818176587, 0.7563643034131928, 0.5457796882653838, 192.0, 124.0, 88.0, 11.5, 72.0, 8.5, 16.0, 0.0, 0.0, 0.0, 1.6082971964977713E9, 2020-12-18 16:13:16.497
52.0, -13269.8056640625, 6073.3935546875, -87426.0078125, -78108.6171875, -29128.322265625, -46936.71875, -34684.921875, -29813.29296875, -185770.90625, 187500.0, 187500.0, -187500.015625, -80056.7734375, -187500.015625, -187500.015625, -187500.015625, -0.2361880818176587, 0.7563643034131928, 0.5457796882653838, 192.0, 0.0, 0.0, 0.0, 0.0, 0.0, 0.0, 0.0, 0.0, 0.0, 1.6082971964977772E9, 2020-12-18 16:13:16.497
54.0, -13265.7373046875, 5929.26953125, -87399.9921875, -78092.5, -29104.40625, -46912.64453125, -34653.5390625, -29777.037109375, -186732.59375, 187500.0, 187500.0, -187500.015625, -80685.078125, -187500.015625, -187500.015625, -187500.015625, -0.2361880818176587, 0.7563643034131928, 0.5457796882653838, 192.0, 0.0, 0.0, 0.0, 0.0, 0.0, 0.0, 0.0, 0.0, 0.0, 1.6082971964977832E9, 2020-12-18 16:13:16.497
56.0, -13256.193359375, 6115.68310546875, -87427.171875, -78110.046875, -29139.833984375, -46932.71484375, -34690.2421875, -29812.30859375, -187170.234375, 187500.0, 187500.0, -187500.015625, -81917.21875, -187500.015625, -187500.015625, -187500.015625, -0.2361880818176587, 0.7563643034131928, 0.5457796882653838, 192.0, 0.0, 0.0, 0.0, 0.0, 0.0, 0.0, 0.0, 0.0, 0.0, 1.6082971964977891E9, 2020-12-18 16:13:16.497
58.0, -13269.537109375, 5970.53076171875, -87399.453125, -78094.7578125, -29112.990234375, -46921.18359375, -34666.21484375, -29797.19921875, -186642.046875, 187500.0, 187500.0, -187500.015625, -81951.7265625, -187500.015625, -187500.015625, -187500.015625, -0.2361880818176587, 0.7563643034131928, 0.5457796882653838, 192.0, 0.0, 0.0, 0.0, 0.0, 0.0, 0.0, 0.0, 0.0, 0.0, 1.608297196497795E9, 2020-12-18 16:13:16.497
60.0, -13255.6123046875, 6020.1962890625, -87404.796875, -78091.671875, -29118.64453125, -46921.1171875, -34674.26171875, -29797.7578125, -187500.015625, 187500.0, 187500.0, -187500.015625, -83304.4140625, -187500.015625, -187500.015625, -187500.015625, -0.23409404502154985, 0.7551821557597123, 0.5448898589146438, 192.0, 124.0, 96.0, 11.5, 72.0, 8.5, 0.0, 0.0, 0.0, 0.0, 1.608297196497801E9, 2020-12-18 16:13:16.497
62.0, -13260.0380859375, 6074.42138671875, -87423.3046875, -78105.4375, -29140.28125, -46933.1640625, -34700.09765625, -29812.263671875, -187311.546875, 187500.0, 187500.0, -187500.015625, -83718.4140625, -187500.015625, -187500.015625, -187500.015625, -0.23409404502154985, 0.7551821557597123, 0.5448898589146438, 192.0, 0.0, 0.0, 0.0, 0.0, 0.0, 0.0, 0.0, 0.0, 0.0, 1.608297196497807E9, 2020-12-18 16:13:16.497
64.0, -13252.5498046875, 5929.31396484375, -87388.8125, -78074.6171875, -29105.412109375, -46904.640625, -34653.875, -29776.009765625, -187500.015625, 187500.0, 187500.0, -187500.015625, -84308.9921875, -187500.015625, -187500.015625, -187500.015625, -0.23409404502154985, 0.7551821557597123, 0.5448898589146438, 192.0, 0.0, 0.0, 0.0, 0.0, 0.0, 0.0, 0.0, 0.0, 0.0, 1.6082971964978144E9, 2020-12-18 16:13:16.497
66.0, -13264.9326171875, 6107.94921875, -87428.015625, -78094.78125, -29150.875, -46933.56640625, -34700.546875, -29819.908203125, -187500.015625, 187500.0, 187500.0, -187500.015625, -85529.8203125, -187500.015625, -187500.015625, -187500.015625, -0.23409404502154985, 0.7551821557597123, 0.5448898589146438, 192.0, 0.0, 0.0, 0.0, 0.0, 0.0, 0.0, 0.0, 0.0, 0.0, 1.6082971964978204E9, 2020-12-18 16:13:16.497
68.0, -13266.05078125, 5964.36181640625, -87403.9453125, -78078.0390625, -29122.712890625, -46910.05078125, -34673.25390625, -29782.9375, -187500.015625, 187500.0, 187500.0, -187500.015625, -85538.1796875, -187500.015625, -187500.015625, -187500.015625, -0.23409404502154985, 0.7551821557597123, 0.5448898589146438, 192.0, 0.0, 0.0, 0.0, 0.0, 0.0, 0.0, 0.0, 0.0, 0.0, 1.6082971964978263E9, 2020-12-18 16:13:16.497
70.0, -13249.4658203125, 6020.30810546875, -87411.078125, -78081.7265625, -29128.435546875, -46912.6875, -34668.73828125, -29792.236328125, -187500.015625, 187500.0, 187500.0, -187500.015625, -86870.5625, -187500.015625, -187500.015625, -187500.015625, -0.23504703067661126, 0.7565910859860878, 0.5464449482923897, 192.0, 124.0, 80.0, 11.5, 88.0, 8.5, 16.0, 0.0, 0.0, 0.0, 1.6082971964978323E9, 2020-12-18 16:13:16.497
72.0, -13263.94921875, 6077.55078125, -87429.6015625, -78102.3828125, -29137.6875, -46926.703125, -34675.80078125, -29806.095703125, -187500.015625, 187500.0, 187500.0, -187500.015625, -87291.984375, -187500.015625, -187500.015625, -187500.015625, -0.23504703067661126, 0.7565910859860878, 0.5464449482923897, 192.0, 0.0, 0.0, 0.0, 0.0, 0.0, 0.0, 0.0, 0.0, 0.0, 1.6082971964978383E9, 2020-12-18 16:13:16.497
74.0, -13255.6572265625, 5935.97509765625, -87401.53125, -78076.4921875, -29104.8984375, -46896.55078125, -34653.47265625, -29771.60546875, -187500.015625, 187500.0, 187500.0, -187500.015625, -87877.828125, -187500.015625, -187500.015625, -187500.015625, -0.23504703067661126, 0.7565910859860878, 0.5464449482923897, 192.0, 0.0, 0.0, 0.0, 0.0, 0.0, 0.0, 0.0, 0.0, 0.0, 1.608297196497844E9, 2020-12-18 16:13:16.497
76.0, -13258.9423828125, 6117.24755859375, -87437.9453125, -78098.828125, -29144.728515625, -46925.47265625, -34669.69921875, -29798.80859375, -187500.015625, 187500.0, 187500.0, -187500.015625, -89134.7734375, -187500.015625, -187500.015625, -187500.015625, -0.23504703067661126, 0.7565910859860878, 0.5464449482923897, 192.0, 0.0, 0.0, 0.0, 0.0, 0.0, 0.0, 0.0, 0.0, 0.0, 1.60829719649785E9, 2020-12-18 16:13:16.497
78.0, -13280.0869140625, 5966.462890625, -87413.890625, -78090.9375, -29122.35546875, -46919.125, -34661.23046875, -29789.21875, -187500.015625, 187500.0, 187500.0, -187500.015625, -89161.171875, -187500.015625, -187500.015625, -187500.015625, -0.23504703067661126, 0.7565910859860878, 0.5464449482923897, 192.0, 0.0, 0.0, 0.0, 0.0, 0.0, 0.0, 0.0, 0.0, 0.0, 1.608297196497856E9, 2020-12-18 16:13:16.497
80.0, -13264.6650390625, 6003.67822265625, -87414.5625, -78089.8359375, -29131.943359375, -46915.7734375, -34673.5, -29791.56640625, -187500.015625, 187500.0, 187500.0, -187500.015625, -90481.578125, -187500.015625, -187500.015625, -187500.015625, -0.23552352350414196, 0.7582955680269947, 0.5502224841597751, 192.0, 124.0, 80.0, 11.5, 96.0, 8.5, 40.0, 0.0, 0.0, 0.0, 1.608297196497862E9, 2020-12-18 16:13:16.497
82.0, -13270.185546875, 6061.94921875, -87432.6484375, -78102.5390625, -29155.5703125, -46932.58203125, -34686.91015625, -29807.861328125, -187500.015625, 187500.0, 187500.0, -187500.015625, -90893.703125, -187500.015625, -187500.015625, -187500.015625, -0.23552352350414196, 0.7582955680269947, 0.5502224841597751, 192.0, 0.0, 0.0, 0.0, 0.0, 0.0, 0.0, 0.0, 0.0, 0.0, 1.608297196497868E9, 2020-12-18 16:13:16.497
84.0, -13269.58203125, 5909.6669921875, -87394.7578125, -78074.3984375, -29112.095703125, -46908.33203125, -34643.59375, -29775.5625, -187500.015625, 187500.0, 187500.0, -187500.015625, -91425.984375, -187500.015625, -187500.015625, -187500.015625, -0.23552352350414196, 0.7582955680269947, 0.5502224841597751, 192.0, 0.0, 0.0, 0.0, 0.0, 0.0, 0.0, 0.0, 0.0, 0.0, 1.6082971964978738E9, 2020-12-18 16:13:16.497
86.0, -13268.77734375, 6091.87841796875, -87435.75, -78100.6328125, -29159.83984375, -46943.33203125, -34704.703125, -29828.736328125, -187500.015625, 187500.0, 187500.0, -187500.015625, -92661.6328125, -187500.015625, -187500.015625, -187500.015625, -0.23552352350414196, 0.7582955680269947, 0.5502224841597751, 192.0, 0.0, 0.0, 0.0, 0.0, 0.0, 0.0, 0.0, 0.0, 0.0, 1.6082971964978795E9, 2020-12-18 16:13:16.497
88.0, -13268.7099609375, 5952.2470703125, -87411.765625, -78085.03125, -29137.173828125, -46923.28515625, -34684.31640625, -29794.0703125, -187500.015625, 187500.0, 187500.0, -187500.015625, -92663.984375, -187500.015625, -187500.015625, -187500.015625, -0.23552352350414196, 0.7582955680269947, 0.5502224841597751, 192.0, 0.0, 0.0, 0.0, 0.0, 0.0, 0.0, 0.0, 0.0, 0.0, 1.6082971964978857E9, 2020-12-18 16:13:16.497
90.0, -13255.3212890625, 6004.4384765625, -87402.1328125, -78070.015625, -29129.060546875, -46911.19140625, -34671.6015625, -29792.794921875, -187500.015625, 187500.0, 187500.0, -187500.015625, -93979.203125, -187500.015625, -187500.015625, -187500.015625, -0.2347617678913494, 0.7591478090474482, 0.5521112520934679, 192.0, 124.0, 88.0, 11.5, 96.0, 8.5, 40.0, 0.0, 0.0, 0.0, 1.6082971964978917E9, 2020-12-18 16:13:16.497
92.0, -13273.8291015625, 6057.88134765625, -87430.1171875, -78095.453125, -29153.3125, -46938.19140625, -34680.85546875, -29808.330078125, -187500.015625, 187500.0, 187500.0, -187500.015625, -94427.109375, -187500.015625, -187500.015625, -187500.015625, -0.2347617678913494, 0.7591478090474482, 0.5521112520934679, 192.0, 0.0, 0.0, 0.0, 0.0, 0.0, 0.0, 0.0, 0.0, 0.0, 1.6082971964978974E9, 2020-12-18 16:13:16.497
94.0, -13256.998046875, 5916.6181640625, -87391.3203125, -78063.6640625, -29114.083984375, -46900.6640625, -34649.29296875, -29771.517578125, -187500.015625, 187500.0, 187500.0, -187500.015625, -94971.5078125, -187500.015625, -187500.015625, -187500.015625, -0.2347617678913494, 0.7591478090474482, 0.5521112520934679, 192.0, 0.0, 0.0, 0.0, 0.0, 0.0, 0.0, 0.0, 0.0, 0.0, 1.608297196497903E9, 2020-12-18 16:13:16.497
96.0, -13250.001953125, 6093.10791015625, -87437.921875, -78097.640625, -29163.83984375, -46940.00390625, -34696.41015625, -29819.595703125, -187500.015625, 187500.0, 187500.0, -187500.015625, -96237.6875, -187500.015625, -187500.015625, -187500.015625, -0.2347617678913494, 0.7591478090474482, 0.5521112520934679, 192.0, 0.0, 0.0, 0.0, 0.0, 0.0, 0.0, 0.0, 0.0, 0.0, 1.6082971964979093E9, 2020-12-18 16:13:16.497
98.0, -13253.890625, 5960.2265625, -87415.1875, -78083.6484375, -29130.87109375, -46919.4609375, -34655.6640625, -29785.12890625, -187500.015625, 187500.0, 187500.0, -187500.015625, -96252.9140625, -187500.015625, -187500.015625, -187500.015625, -0.2347617678913494, 0.7591478090474482, 0.5521112520934679, 192.0, 0.0, 0.0, 0.0, 0.0, 0.0, 0.0, 0.0, 0.0, 0.0, 1.6082971964979167E9, 2020-12-18 16:13:16.497
100.0, -13257.712890625, 6005.17578125, -87426.609375, -78092.8984375, -29139.56640625, -46921.921875, -34662.63671875, -29790.873046875, -187500.015625, 187500.0, 187500.0, -187500.015625, -97576.8515625, -187500.015625, -187500.015625, -187500.015625, -0.2343808900849531, 0.7555739214514432, 0.5500556448818017, 192.0, 124.0, 88.0, 11.5, 64.0, 8.5, 16.0, 0.0, 0.0, 0.0, 1.608297196497923E9, 2020-12-18 16:13:16.497
102.0, -13261.06640625, 6070.5322265625, -87445.921875, -78109.328125, -29160.083984375, -46935.17578125, -34698.04296875, -29812.3984375, -187500.015625, 187500.0, 187500.0, -187500.015625, -98045.765625, -187500.015625, -187500.015625, -187500.015625, -0.2343808900849531, 0.7555739214514432, 0.5500556448818017, 192.0, 0.0, 0.0, 0.0, 0.0, 0.0, 0.0, 0.0, 0.0, 0.0, 1.6082971964979289E9, 2020-12-18 16:13:16.497
104.0, -13273.2255859375, 5903.54248046875, -87421.9140625, -78098.7109375, -29120.8359375, -46917.671875, -34655.125, -29790.626953125, -187500.015625, 187500.0, 187500.0, -187500.015625, -98567.5703125, -187500.015625, -187500.015625, -187500.015625, -0.2343808900849531, 0.7555739214514432, 0.5500556448818017, 192.0, 0.0, 0.0, 0.0, 0.0, 0.0, 0.0, 0.0, 0.0, 0.0, 1.6082971969811103E9, 2020-12-18 16:13:16.981
106.0, -13257.6015625, 6091.43115234375, -87455.7578125, -78122.7890625, -29158.720703125, -46941.5, -34684.453125, -29826.099609375, -187500.015625, 187500.0, 187500.0, -187500.015625, -99829.59375, -187500.015625, -187500.015625, -187500.015625, -0.2343808900849531, 0.7555739214514432, 0.5500556448818017, 192.0, 0.0, 0.0, 0.0, 0.0, 0.0, 0.0, 0.0, 0.0, 0.0, 1.6082971969812253E9, 2020-12-18 16:13:16.981
108.0, -13260.216796875, 5958.93017578125, -87430.390625, -78101.9296875, -29128.412109375, -46914.85546875, -34653.515625, -29786.6484375, -187500.015625, 187500.0, 187500.0, -187500.015625, -99828.875, -187500.015625, -187500.015625, -187500.015625, -0.2343808900849531, 0.7555739214514432, 0.5500556448818017, 192.0, 0.0, 0.0, 0.0, 0.0, 0.0, 0.0, 0.0, 0.0, 0.0, 1.6082971969812348E9, 2020-12-18 16:13:16.981
110.0, -13249.30859375, 6006.09228515625, -87441.765625, -78111.40625, -29142.986328125, -46920.2421875, -34676.11328125, -29801.84765625, -187500.015625, 187500.0, 187500.0, -187500.015625, -101135.78125, -187500.015625, -187500.015625, -187500.015625, -0.23419045118175497, 0.7547869647788374, 0.5490278412759686, 192.0, 124.0, 88.0, 11.5, 72.0, 8.5, 16.0, 0.0, 0.0, 0.0, 1.608297196981247E9, 2020-12-18 16:13:16.981
112.0, -13263.8818359375, 6082.49072265625, -87471.1328125, -78135.234375, -29169.78515625, -46943.7578125, -34693.4140625, -29826.94921875, -187500.015625, 187500.0, 187500.0, -187500.015625, -101622.671875, -187500.015625, -187500.015625, -187500.015625, -0.23419045118175497, 0.7547869647788374, 0.5490278412759686, 192.0, 0.0, 0.0, 0.0, 0.0, 0.0, 0.0, 0.0, 0.0, 0.0, 1.6082971969812577E9, 2020-12-18 16:13:16.981
114.0, -13255.544921875, 5919.79248046875, -87428.2421875, -78099.984375, -29122.958984375, -46909.91796875, -34643.94921875, -29780.2109375, -187500.015625, 187500.0, 187500.0, -187500.015625, -102142.171875, -187500.015625, -187500.015625, -187500.015625, -0.23419045118175497, 0.7547869647788374, 0.5490278412759686, 192.0, 0.0, 0.0, 0.0, 0.0, 0.0, 0.0, 0.0, 0.0, 0.0, 1.6082971969812703E9, 2020-12-18 16:13:16.981
116.0, -13248.4150390625, 6091.47607421875, -87474.1328125, -78133.15625, -29175.10546875, -46945.09765625, -34700.74609375, -29833.005859375, -187500.015625, 187500.0, 187500.0, -187500.015625, -103438.484375, -187500.015625, -187500.015625, -187500.015625, -0.23419045118175497, 0.7547869647788374, 0.5490278412759686, 192.0, 0.0, 0.0, 0.0, 0.0, 0.0, 0.0, 0.0, 0.0, 0.0, 1.6082971969812846E9, 2020-12-18 16:13:16.981
118.0, -13263.1669921875, 5972.89990234375, -87439.53125, -78107.921875, -29141.30859375, -46922.09765625, -34669.69921875, -29801.1328125, -187500.015625, 187500.0, 187500.0, -187500.015625, -103458.5078125, -187500.015625, -187500.015625, -187500.015625, -0.23419045118175497, 0.7547869647788374, 0.5490278412759686, 192.0, 0.0, 0.0, 0.0, 0.0, 0.0, 0.0, 0.0, 0.0, 0.0, 1.6082971969812934E9, 2020-12-18 16:13:16.981
120.0, -13244.861328125, 5995.453125, -87434.2109375, -78099.5390625, -29142.404296875, -46915.37109375, -34662.28125, -29796.1484375, -187500.015625, 187500.0, 187500.0, -187500.015625, -104771.2734375, -187500.015625, -187500.015625, -187500.015625, -0.23509523375671382, 0.751393495264022, 0.5475139225453329, 192.0, 124.0, 80.0, 11.5, 48.0, 8.5, 8.0, 0.0, 0.0, 0.0, 1.6082971969813051E9, 2020-12-18 16:13:16.981
122.0, -13258.80859375, 6070.1298828125, -87450.9765625, -78111.5234375, -29167.6171875, -46933.90234375, -34685.859375, -29821.00390625, -187500.015625, 187500.0, 187500.0, -187500.015625, -105271.9296875, -187500.015625, -187500.015625, -187500.015625, -0.23509523375671382, 0.751393495264022, 0.5475139225453329, 192.0, 0.0, 0.0, 0.0, 0.0, 0.0, 0.0, 0.0, 0.0, 0.0, 1.6082971969813137E9, 2020-12-18 16:13:16.981
124.0, -13264.4189453125, 5900.234375, -87416.734375, -78079.984375, -29128.79296875, -46902.1171875, -34636.10546875, -29768.119140625, -187500.015625, 187500.0, 187500.0, -187500.015625, -105778.3046875, -187500.015625, -187500.015625, -187500.015625, -0.23509523375671382, 0.751393495264022, 0.5475139225453329, 192.0, 0.0, 0.0, 0.0, 0.0, 0.0, 0.0, 0.0, 0.0, 0.0, 1.6082971969813232E9, 2020-12-18 16:13:16.981
126.0, -13275.728515625, 6065.369140625, -87458.1015625, -78109.7109375, -29174.837890625, -46943.1328125, -34688.25390625, -29826.501953125, -187500.015625, 187500.0, 187500.0, -187500.015625, -107108.53125, -187500.015625, -187500.015625, -187500.015625, -0.23509523375671382, 0.751393495264022, 0.5475139225453329, 192.0, 0.0, 0.0, 0.0, 0.0, 0.0, 0.0, 0.0, 0.0, 0.0, 1.608297196981332E9, 2020-12-18 16:13:16.981
128.0, -13300.0029296875, 5919.2783203125, -87435.6640625, -78095.4296875, -29151.12109375, -46930.59375, -34666.5703125, -29804.171875, -187500.015625, 187500.0, 187500.0, -187500.015625, -107136.625, -187500.015625, -187500.015625, -187500.015625, -0.23509523375671382, 0.751393495264022, 0.5475139225453329, 192.0, 0.0, 0.0, 0.0, 0.0, 0.0, 0.0, 0.0, 0.0, 0.0, 1.608297196981342E9, 2020-12-18 16:13:16.981
130.0, -13305.814453125, 5938.92529296875, -87440.9140625, -78097.0625, -29161.24609375, -46926.4140625, -34674.41796875, -29803.48046875, -187500.015625, 187500.0, 187500.0, -187500.015625, -108446.8125, -187500.015625, -187500.015625, -187500.015625, -0.23654761962017057, 0.7516967645597301, 0.5477569801077342, 192.0, 124.0, 72.0, 11.5, 64.0, 8.5, 16.0, 0.0, 0.0, 0.0, 1.6082971969813511E9, 2020-12-18 16:13:16.981
132.0, -13340.50390625, 5993.95556640625, -87476.5859375, -78126.921875, -29193.12109375, -46958.265625, -34702.625, -29839.578125, -187500.015625, 187500.0, 187500.0, -187500.015625, -108988.5078125, -187500.015625, -187500.015625, -187500.015625, -0.23654761962017057, 0.7516967645597301, 0.5477569801077342, 192.0, 0.0, 0.0, 0.0, 0.0, 0.0, 0.0, 0.0, 0.0, 0.0, 1.6082971969813883E9, 2020-12-18 16:13:16.981
134.0, -13337.2412109375, 5822.78564453125, -87426.5625, -78084.3828125, -29140.392578125, -46911.1484375, -34651.328125, -29783.296875, -187500.015625, 187500.0, 187500.0, -187500.015625, -109490.796875, -187500.015625, -187500.015625, -187500.015625, -0.23654761962017057, 0.7516967645597301, 0.5477569801077342, 192.0, 0.0, 0.0, 0.0, 0.0, 0.0, 0.0, 0.0, 0.0, 0.0, 1.6082971969813955E9, 2020-12-18 16:13:16.981
136.0, -13367.7958984375, 5989.12744140625, -87482.78125, -78130.9453125, -29202.26171875, -46962.51171875, -34712.4609375, -29847.669921875, -187500.015625, 187500.0, 187500.0, -187500.015625, -110822.2890625, -187500.015625, -187500.015625, -187500.015625, -0.23654761962017057, 0.7516967645597301, 0.5477569801077342, 192.0, 0.0, 0.0, 0.0, 0.0, 0.0, 0.0, 0.0, 0.0, 0.0, 1.6082971969814024E9, 2020-12-18 16:13:16.981
138.0, -13378.1669921875, 5850.97119140625, -87458.90625, -78119.0078125, -29166.455078125, -46944.8515625, -34675.265625, -29822.880859375, -187500.015625, 187500.0, 187500.0, -187500.015625, -110852.671875, -187500.015625, -187500.015625, -187500.015625, -0.23654761962017057, 0.7516967645597301, 0.5477569801077342, 192.0, 0.0, 0.0, 0.0, 0.0, 0.0, 0.0, 0.0, 0.0, 0.0, 1.6082971969814095E9, 2020-12-18 16:13:16.981
138.0, -13367.0576171875, 5879.0224609375, -87448.421875, -78101.421875, -29159.212890625, -46930.703125, -34669.9921875, -29801.982421875, -187500.015625, 187500.0, 187500.0, -187500.015625, -110852.671875, -187500.015625, -187500.015625, -187500.015625, -0.2352738159493637, 0.7548483903860967, 0.5518785169951665, 192.0, 124.0, 88.0, 11.5, 88.0, 8.5, 48.0, 0.0, 0.0, 0.0, 1.6082971969814136E9, 2020-12-18 16:13:16.981
142.0, -13392.5166015625, 5953.7890625, -87491.875, -78143.796875, -29205.548828125, -46968.94921875, -34712.90625, -29845.0546875, -187500.015625, 187500.0, 187500.0, -187500.015625, -112741.65625, -187500.015625, -187500.015625, -187500.015625, -0.2352738159493637, 0.7548483903860967, 0.5518785169951665, 192.0, 0.0, 0.0, 0.0, 0.0, 0.0, 0.0, 0.0, 0.0, 0.0, 1.608297196981427E9, 2020-12-18 16:13:16.981
144.0, -13361.291015625, 5813.59912109375, -87431.3671875, -78098.21875, -29143.455078125, -46919.99609375, -34645.91796875, -29788.638671875, -187500.015625, 187500.0, 187500.0, -187500.015625, -113230.9375, -187500.015625, -187500.015625, -187500.015625, -0.2352738159493637, 0.7548483903860967, 0.5518785169951665, 192.0, 0.0, 0.0, 0.0, 0.0, 0.0, 0.0, 0.0, 0.0, 0.0, 1.6082971969814365E9, 2020-12-18 16:13:16.981
146.0, -13382.5703125, 5970.9775390625, -87494.9140625, -78148.6484375, -29211.716796875, -46975.16015625, -34723.25390625, -29859.470703125, -187500.015625, 187500.0, 187500.0, -187500.015625, -114569.3125, -187500.015625, -187500.015625, -187500.015625, -0.2352738159493637, 0.7548483903860967, 0.5518785169951665, 192.0, 0.0, 0.0, 0.0, 0.0, 0.0, 0.0, 0.0, 0.0, 0.0, 1.6082971969814444E9, 2020-12-18 16:13:16.981
148.0, -13365.001953125, 5869.14306640625, -87450.90625, -78116.75, -29165.494140625, -46937.03125, -34675.69140625, -29810.296875, -187500.015625, 187500.0, 187500.0, -187500.015625, -114583.1953125, -187500.015625, -187500.015625, -187500.015625, -0.2352738159493637, 0.7548483903860967, 0.5518785169951665, 192.0, 0.0, 0.0, 0.0, 0.0, 0.0, 0.0, 0.0, 0.0, 0.0, 1.608297196981455E9, 2020-12-18 16:13:16.981
150.0, -13335.765625, 5902.60400390625, -87441.65625, -78104.59375, -29160.419921875, -46933.90234375, -34676.02734375, -29816.689453125, -187500.015625, 187500.0, 187500.0, -187500.015625, -115877.765625, -187500.015625, -187500.015625, -187500.015625, -0.2366369107164955, 0.7544241992461642, 0.5539392854388827, 192.0, 124.0, 72.0, 11.5, 72.0, 8.5, 48.0, 0.0, 0.0, 0.0, 1.6082971969814637E9, 2020-12-18 16:13:16.981
152.0, -13364.8447265625, 5976.6552734375, -87483.9453125, -78139.3046875, -29204.609375, -46971.83203125, -34709.8671875, -29853.30078125, -187500.015625, 187500.0, 187500.0, -187500.015625, -116456.8125, -187500.015625, -187500.015625, -187500.015625, -0.2366369107164955, 0.7544241992461642, 0.5539392854388827, 192.0, 0.0, 0.0, 0.0, 0.0, 0.0, 0.0, 0.0, 0.0, 0.0, 1.6082971969814703E9, 2020-12-18 16:13:16.981
154.0, -13315.9169921875, 5853.4970703125, -87411.546875, -78077.1875, -29131.83203125, -46908.64453125, -34635.859375, -29780.435546875, -187500.015625, 187500.0, 187500.0, -187500.015625, -116946.9375, -187500.015625, -187500.015625, -187500.015625, -0.2366369107164955, 0.7544241992461642, 0.5539392854388827, 192.0, 0.0, 0.0, 0.0, 0.0, 0.0, 0.0, 0.0, 0.0, 0.0, 1.6082971969814787E9, 2020-12-18 16:13:16.981
156.0, -13325.5732421875, 6011.970703125, -87471.4921875, -78122.6328125, -29199.53515625, -46957.50390625, -34705.84375, -29845.947265625, -187500.015625, 187500.0, 187500.0, -187500.015625, -118328.3671875, -187500.015625, -187500.015625, -187500.015625, -0.2366369107164955, 0.7544241992461642, 0.5539392854388827, 192.0, 0.0, 0.0, 0.0, 0.0, 0.0, 0.0, 0.0, 0.0, 0.0, 1.608297196981488E9, 2020-12-18 16:13:16.981
158.0, -13334.2236328125, 5896.6357421875, -87450.28125, -78109.6875, -29176.87109375, -46938.50390625, -34681.09765625, -29809.984375, -187500.015625, 187500.0, 187500.0, -187500.015625, -118374.7421875, -187500.015625, -187500.015625, -187500.015625, -0.2366369107164955, 0.7544241992461642, 0.5539392854388827, 192.0, 0.0, 0.0, 0.0, 0.0, 0.0, 0.0, 0.0, 0.0, 0.0, 1.6082971969814966E9, 2020-12-18 16:13:16.981
160.0, -13292.5595703125, 5946.32373046875, -87431.484375, -78090.0859375, -29163.818359375, -46924.3359375, -34667.62109375, -29799.166015625, -187500.015625, 187500.0, 187500.0, -187500.015625, -119680.15625, -187500.015625, -187500.015625, -187500.015625, -0.23531846149752617, 0.7562121077293138, 0.5559696567861375, 192.0, 124.0, 88.0, 11.5, 88.0, 8.5, 56.0, 0.0, 0.0, 0.0, 1.6082971969815052E9, 2020-12-18 16:13:16.981
162.0, -13315.6708984375, 6021.9619140625, -87486.984375, -78143.6875, -29216.25390625, -46981.82421875, -34707.4765625, -29855.55859375, -187500.015625, 187500.0, 187500.0, -187500.015625, -120273.640625, -187500.015625, -187500.015625, -187500.015625, -0.23531846149752617, 0.7562121077293138, 0.5559696567861375, 192.0, 0.0, 0.0, 0.0, 0.0, 0.0, 0.0, 0.0, 0.0, 0.0, 1.6082971969815145E9, 2020-12-18 16:13:16.981
164.0, -13279.103515625, 5885.638671875, -87401.0625, -78070.28125, -29133.306640625, -46905.984375, -34630.5390625, -29774.51171875, -187500.015625, 187500.0, 187500.0, -187500.015625, -120735.2421875, -187500.015625, -187500.015625, -187500.015625, -0.23531846149752617, 0.7562121077293138, 0.5559696567861375, 192.0, 0.0, 0.0, 0.0, 0.0, 0.0, 0.0, 0.0, 0.0, 0.0, 1.6082971969815233E9, 2020-12-18 16:13:16.981
166.0, -13290.369140625, 6050.25927734375, -87462.1953125, -78117.421875, -29193.6796875, -46964.27734375, -34697.99609375, -29850.91015625, -187500.015625, 187500.0, 187500.0, -187500.015625, -122117.078125, -187500.015625, -187500.015625, -187500.015625, -0.23531846149752617, 0.7562121077293138, 0.5559696567861375, 192.0, 0.0, 0.0, 0.0, 0.0, 0.0, 0.0, 0.0, 0.0, 0.0, 1.6082971969815412E9, 2020-12-18 16:13:16.981
168.0, -13291.978515625, 5925.38037109375, -87440.46875, -78104.5, -29170.65625, -46942.4609375, -34679.15625, -29814.990234375, -187500.015625, 187500.0, 187500.0, -187500.015625, -122155.5390625, -187500.015625, -187500.015625, -187500.015625, -0.23531846149752617, 0.7562121077293138, 0.5559696567861375, 192.0, 0.0, 0.0, 0.0, 0.0, 0.0, 0.0, 0.0, 0.0, 0.0, 1.6082971969815488E9, 2020-12-18 16:13:16.981
170.0, -13263.4794921875, 5962.9755859375, -87422.6796875, -78085.9765625, -29160.0625, -46926.5703125, -34672.203125, -29807.546875, -187500.015625, 187500.0, 187500.0, -187500.015625, -123453.1484375, -187500.015625, -187500.015625, -187500.015625, -0.23565923891459942, 0.7561060748454919, 0.5529848343535333, 192.0, 124.0, 80.0, 11.5, 80.0, 8.5, 24.0, 0.0, 0.0, 0.0, 1.6082971969815564E9, 2020-12-18 16:13:16.981
172.0, -13293.6328125, 6030.65673828125, -87479.296875, -78136.3125, -29215.337890625, -46976.63671875, -34711.296875, -29855.15625, -187500.015625, 187500.0, 187500.0, -187500.015625, -124074.6640625, -187500.015625, -187500.015625, -187500.015625, -0.23565923891459942, 0.7561060748454919, 0.5529848343535333, 192.0, 0.0, 0.0, 0.0, 0.0, 0.0, 0.0, 0.0, 0.0, 0.0, 1.6082971969815643E9, 2020-12-18 16:13:16.981
174.0, -13238.669921875, 5908.72802734375, -87390.2890625, -78062.546875, -29123.40625, -46895.58984375, -34617.890625, -29763.42578125, -187500.015625, 187500.0, 187500.0, -187500.015625, -124533.96875, -187500.015625, -187500.015625, -187500.015625, -0.23565923891459942, 0.7561060748454919, 0.5529848343535333, 192.0, 0.0, 0.0, 0.0, 0.0, 0.0, 0.0, 0.0, 0.0, 0.0, 1.6082971969815714E9, 2020-12-18 16:13:16.981
176.0, -13277.0029296875, 6060.85400390625, -87468.0703125, -78122.671875, -29214.17578125, -46968.56640625, -34715.69921875, -29855.513671875, -187500.015625, 187500.0, 187500.0, -187500.015625, -125932.8046875, -187500.015625, -187500.015625, -187500.015625, -0.23565923891459942, 0.7561060748454919, 0.5529848343535333, 192.0, 0.0, 0.0, 0.0, 0.0, 0.0, 0.0, 0.0, 0.0, 0.0, 1.6082971969815788E9, 2020-12-18 16:13:16.981
178.0, -13273.404296875, 5950.34716796875, -87434.34375, -78101.1015625, -29168.6015625, -46940.7421875, -34661.4296875, -29806.005859375, -187500.015625, 187500.0, 187500.0, -187500.015625, -125979.4375, -187500.015625, -187500.015625, -187500.015625, -0.23565923891459942, 0.7561060748454919, 0.5529848343535333, 192.0, 0.0, 0.0, 0.0, 0.0, 0.0, 0.0, 0.0, 0.0, 0.0, 1.6082971969815876E9, 2020-12-18 16:13:16.981
180.0, -13244.615234375, 5995.27392578125, -87416.796875, -78076.4296875, -29162.0078125, -46919.70703125, -34670.9296875, -29806.609375, -187500.015625, 187500.0, 187500.0, -187500.015625, -127278.3359375, -187500.015625, -187500.015625, -187500.015625, -0.2388296262522292, 0.756053058403581, 0.553492427190347, 192.0, 124.0, 56.0, 11.5, 80.0, 8.5, 40.0, 0.0, 0.0, 0.0, 1.6082971969815955E9, 2020-12-18 16:13:16.981
182.0, -13291.4423828125, 6046.75, -87492.8828125, -78145.1796875, -29239.76953125, -46998.40625, -34729.984375, -29874.759765625, -187500.015625, 187500.0, 187500.0, -187500.015625, -127922.1328125, -187500.015625, -187500.015625, -187500.015625, -0.2388296262522292, 0.756053058403581, 0.553492427190347, 192.0, 0.0, 0.0, 0.0, 0.0, 0.0, 0.0, 0.0, 0.0, 0.0, 1.608297196981604E9, 2020-12-18 16:13:16.981
184.0, -13225.951171875, 5931.4599609375, -87390.3984375, -78057.5625, -29127.763671875, -46906.140625, -34625.66796875, -29778.826171875, -187500.015625, 187500.0, 187500.0, -187500.015625, -128368.03125, -187500.015625, -187500.015625, -187500.015625, -0.2388296262522292, 0.756053058403581, 0.553492427190347, 192.0, 0.0, 0.0, 0.0, 0.0, 0.0, 0.0, 0.0, 0.0, 0.0, 1.6082971969816124E9, 2020-12-18 16:13:16.981
186.0, -13257.1767578125, 6071.62744140625, -87473.03125, -78125.2890625, -29217.05859375, -46980.59375, -34718.0703125, -29867.607421875, -187500.015625, 187500.0, 187500.0, -187500.015625, -129779.9921875, -187500.015625, -187500.015625, -187500.015625, -0.2388296262522292, 0.756053058403581, 0.553492427190347, 192.0, 0.0, 0.0, 0.0, 0.0, 0.0, 0.0, 0.0, 0.0, 0.0, 1.6082971969816227E9, 2020-12-18 16:13:16.981
188.0, -13253.3095703125, 5968.67529296875, -87446.0546875, -78105.21875, -29187.779296875, -46960.1640625, -34694.84765625, -29837.587890625, -187500.015625, 187500.0, 187500.0, -187500.015625, -129824.515625, -187500.015625, -187500.015625, -187500.015625, -0.2388296262522292, 0.756053058403581, 0.553492427190347, 192.0, 0.0, 0.0, 0.0, 0.0, 0.0, 0.0, 0.0, 0.0, 0.0, 1.6082971969816313E9, 2020-12-18 16:13:16.981
190.0, -13225.0126953125, 6013.6025390625, -87421.265625, -78076.1640625, -29159.81640625, -46923.21484375, -34650.58984375, -29799.34375, -187500.015625, 187500.0, 187500.0, -187500.015625, -131111.546875, -187500.015625, -187500.015625, -187500.015625, -0.24241481652357935, 0.7530265590041129, 0.551746219555638, 192.0, 124.0, 40.0, 11.5, 56.0, 8.5, 24.0, 0.0, 0.0, 0.0, 1.6082971969816432E9, 2020-12-18 16:13:16.981
192.0, -13270.9228515625, 6071.203125, -87484.9921875, -78134.4296875, -29232.99609375, -46988.41796875, -34718.76171875, -29868.388671875, -187500.015625, 187500.0, 187500.0, -187500.015625, -131765.78125, -187500.015625, -187500.015625, -187500.015625, -0.24241481652357935, 0.7530265590041129, 0.551746219555638, 192.0, 0.0, 0.0, 0.0, 0.0, 0.0, 0.0, 0.0, 0.0, 0.0, 1.6082971969816515E9, 2020-12-18 16:13:16.981
194.0, -13221.97265625, 5956.203125, -87391.0703125, -78052.0625, -29139.6328125, -46905.4921875, -34626.78515625, -29771.271484375, -187500.015625, 187500.0, 187500.0, -187500.015625, -132193.890625, -187500.015625, -187500.015625, -187500.015625, -0.24241481652357935, 0.7530265590041129, 0.551746219555638, 192.0, 0.0, 0.0, 0.0, 0.0, 0.0, 0.0, 0.0, 0.0, 0.0, 1.608297196981662E9, 2020-12-18 16:13:16.981
196.0, -13261.9599609375, 6084.23388671875, -87479.828125, -78130.1640625, -29233.912109375, -46989.9140625, -34727.2109375, -29867.16015625, -187500.015625, 187500.0, 187500.0, -187500.015625, -133611.859375, -187500.015625, -187500.015625, -187500.015625, -0.24241481652357935, 0.7530265590041129, 0.551746219555638, 192.0, 0.0, 0.0, 0.0, 0.0, 0.0, 0.0, 0.0, 0.0, 0.0, 1.6082971969816716E9, 2020-12-18 16:13:16.981
198.0, -13254.9189453125, 5981.1923828125, -87447.7109375, -78110.9140625, -29196.517578125, -46961.70703125, -34682.3046875, -29827.171875, -187500.015625, 187500.0, 187500.0, -187500.015625, -133652.203125, -187500.015625, -187500.015625, -187500.015625, -0.24241481652357935, 0.7530265590041129, 0.551746219555638, 192.0, 0.0, 0.0, 0.0, 0.0, 0.0, 0.0, 0.0, 0.0, 0.0, 1.60829719698168E9, 2020-12-18 16:13:16.981
200.0, -13224.990234375, 6006.3603515625, -87423.9296875, -78085.171875, -29173.361328125, -46934.34765625, -34671.93359375, -29810.609375, -187500.015625, 187500.0, 187500.0, -187500.015625, -134921.34375, -187500.015625, -187500.015625, -187500.015625, -0.24520741368581234, 0.7535132835551723, 0.5528731197913993, 192.0, 124.0, 32.0, 11.5, 72.0, 8.5, 40.0, 0.0, 0.0, 0.0, 1.6082971969816992E9, 2020-12-18 16:13:16.981
202.0, -13271.4599609375, 6076.791015625, -87488.7734375, -78141.9453125, -29239.880859375, -46998.2734375, -34729.35546875, -29869.619140625, -187500.015625, 187500.0, 187500.0, -187500.015625, -135586.171875, -187500.015625, -187500.015625, -187500.015625, -0.24520741368581234, 0.7535132835551723, 0.5528731197913993, 192.0, 0.0, 0.0, 0.0, 0.0, 0.0, 0.0, 0.0, 0.0, 0.0, 1.6082971969817057E9, 2020-12-18 16:13:16.981
204.0, -13227.2255859375, 5936.51123046875, -87398.421875, -78065.0703125, -29146.048828125, -46911.81640625, -34638.6328125, -29773.931640625, -187500.015625, 187500.0, 187500.0, -187500.015625, -135994.046875, -187500.015625, -187500.015625, -187500.015625, -0.24520741368581234, 0.7535132835551723, 0.5528731197913993, 192.0, 0.0, 0.0, 0.0, 0.0, 0.0, 0.0, 0.0, 0.0, 0.0, 1.6082971969817128E9, 2020-12-18 16:13:16.981
206.0, -13257.8251953125, 6074.3994140625, -87479.3828125, -78132.953125, -29231.453125, -46984.16796875, -34721.5546875, -29862.48828125, -187500.015625, 187500.0, 187500.0, -187500.015625, -137421.5, -187500.015625, -187500.015625, -187500.015625, -0.24520741368581234, 0.7535132835551723, 0.5528731197913993, 192.0, 0.0, 0.0, 0.0, 0.0, 0.0, 0.0, 0.0, 0.0, 0.0, 1.60829719698172E9, 2020-12-18 16:13:16.981
208.0, -13254.181640625, 5979.89599609375, -87440.7578125, -78101.4375, -29187.0625, -46950.77734375, -34665.20703125, -29809.8046875, -187500.015625, 187500.0, 187500.0, -187500.015625, -137456.859375, -187500.015625, -187500.015625, -187500.015625, -0.24520741368581234, 0.7535132835551723, 0.5528731197913993, 192.0, 0.0, 0.0, 0.0, 0.0, 0.0, 0.0, 0.0, 0.0, 0.0, 1.6082971969817266E9, 2020-12-18 16:13:16.981
210.0, -13208.830078125, 6002.76171875, -87414.5390625, -78069.8125, -29163.1015625, -46921.4296875, -34645.3828125, -29790.91796875, -187500.015625, 187500.0, 187500.0, -187500.015625, -138711.03125, -187500.015625, -187500.015625, -187500.015625, -0.24260371161127775, 0.7547566627584211, 0.5554365739623959, 192.0, 124.0, 64.0, 11.5, 80.0, 8.5, 56.0, 0.0, 0.0, 0.0, 1.6082971969817338E9, 2020-12-18 16:13:16.981
212.0, -13284.0439453125, 6060.1611328125, -87501.625, -78146.4765625, -29251.033203125, -46998.9453125, -34731.19140625, -29874.267578125, -187500.015625, 187500.0, 187500.0, -187500.015625, -139389.921875, -187500.015625, -187500.015625, -187500.015625, -0.24260371161127775, 0.7547566627584211, 0.5554365739623959, 192.0, 0.0, 0.0, 0.0, 0.0, 0.0, 0.0, 0.0, 0.0, 0.0, 1.60829719698174E9, 2020-12-18 16:13:16.981
214.0, -13223.068359375, 5932.845703125, -87406.5859375, -78064.203125, -29155.45703125, -46911.6171875, -34624.640625, -29773.86328125, -187500.015625, 187500.0, 187500.0, -187500.015625, -139777.65625, -187500.015625, -187500.015625, -187500.015625, -0.24260371161127775, 0.7547566627584211, 0.5554365739623959, 192.0, 0.0, 0.0, 0.0, 0.0, 0.0, 0.0, 0.0, 0.0, 0.0, 1.6082971969817472E9, 2020-12-18 16:13:16.981
216.0, -13251.56640625, 6077.55078125, -87484.609375, -78130.8125, -29241.1328125, -46983.453125, -34718.73828125, -29861.884765625, -187500.015625, 187500.0, 187500.0, -187500.015625, -141208.34375, -187500.015625, -187500.015625, -187500.015625, -0.24260371161127775, 0.7547566627584211, 0.5554365739623959, 192.0, 0.0, 0.0, 0.0, 0.0, 0.0, 0.0, 0.0, 0.0, 0.0, 1.608297196981754E9, 2020-12-18 16:13:16.981
